timestamp,marker_code,marker_label,EEG_0,EEG_1,EEG_2,EEG_3
1770773650.1882493,,,19.04296875,-542.96875,-48.828125,-16.11328125
1770773650.1907554,,,20.5078125,-571.77734375,-50.29296875,-17.578125
1770773650.1932616,,,-16.6015625,-552.734375,-47.8515625,-30.76171875
1770773650.1957676,,,-32.71484375,-776.3671875,-45.8984375,-31.73828125
1770773650.198274,,,-0.48828125,-909.1796875,-44.43359375,-14.16015625
1770773650.2007802,,,12.20703125,-899.4140625,-44.921875,1.46484375
1770773650.2032862,,,-18.5546875,-993.65234375,-47.8515625,-7.32421875
1770773650.2057924,,,-41.015625,-788.0859375,-46.875,-23.4375
1770773650.2082984,,,3.41796875,-634.765625,-43.45703125,10.25390625
1770773650.2108047,,,25.390625,-617.1875,-38.0859375,20.99609375
1770773650.2133107,,,-15.625,-600.09765625,-33.203125,-16.6015625
1770773650.215817,,,-68.359375,-856.93359375,-37.109375,-27.34375
1770773650.220826,,,-19.04296875,-912.109375,-44.921875,-15.625
1770773650.2258346,,,34.1796875,-631.8359375,-42.96875,0.9765625
1770773650.2308435,,,14.16015625,-607.91015625,-42.96875,0.0
1770773650.2358522,,,-36.62109375,-630.37109375,-47.8515625,-17.578125
1770773650.2408612,,,-26.85546875,-625.48828125,-52.24609375,-6.8359375
1770773650.2458699,,,18.5546875,-856.4453125,-52.24609375,9.27734375
1770773650.2508788,,,18.5546875,-1000.0,-45.41015625,13.671875
1770773650.2558877,,,-27.83203125,-1000.0,-44.921875,8.7890625
1770773650.2608964,,,-26.3671875,-794.43359375,-46.38671875,-25.390625
1770773650.2659054,,,17.08984375,-506.34765625,-43.45703125,-16.11328125
1770773650.270914,,,21.97265625,-496.58203125,-38.0859375,1.46484375
1770773650.275923,,,-2.9296875,-518.5546875,-35.15625,-20.99609375
1770773650.2762465,,,-41.015625,-521.484375,-39.0625,-42.96875
1770773650.2765698,,,5.37109375,-439.453125,-35.64453125,-28.3203125
1770773650.2768931,,,42.96875,-667.96875,-30.76171875,-19.04296875
1770773650.2772167,,,-1.46484375,-936.03515625,-35.64453125,-5.37109375
1770773650.2775402,,,-44.43359375,-615.72265625,-41.015625,-18.5546875
1770773650.2778635,,,-22.4609375,-704.1015625,-41.9921875,-24.90234375
1770773650.2781868,,,18.5546875,-916.9921875,-41.9921875,-6.8359375
1770773650.2785103,,,15.13671875,-629.39453125,-41.015625,-18.5546875
1770773650.2788339,,,-27.34375,-416.50390625,-43.9453125,-38.0859375
1770773650.2791572,,,-29.296875,-402.34375,-49.31640625,-30.76171875
1770773650.2794805,,,0.0,-759.27734375,-46.38671875,-2.44140625
1770773650.279804,,,8.30078125,-849.609375,-43.9453125,-8.7890625
1770773650.2871602,,,-19.53125,-436.5234375,-41.015625,-33.69140625
1770773650.2945166,,,-33.69140625,-383.7890625,-37.59765625,-33.203125
1770773650.3018727,,,0.0,-416.9921875,-37.109375,-18.5546875
1770773650.309229,,,17.578125,-405.76171875,-34.66796875,-3.90625
1770773650.3165853,,,-14.16015625,-428.22265625,-36.62109375,-14.16015625
1770773650.3239415,,,-41.015625,-774.90234375,-38.57421875,-5.859375
1770773650.3312976,,,2.44140625,-1000.0,-45.8984375,4.39453125
1770773650.338654,,,7.8125,-989.2578125,-46.38671875,-20.99609375
1770773650.3460102,,,-41.015625,-637.20703125,-44.43359375,-48.33984375
1770773650.3533664,,,-90.8203125,-324.21875,-50.78125,-64.94140625
1770773650.3607228,,,-66.40625,-501.46484375,-55.17578125,-46.38671875
1770773650.368079,,,-22.94921875,-538.57421875,-57.6171875,-42.48046875
1770773650.3691278,,,-29.296875,-361.81640625,-56.15234375,-49.8046875
1770773650.3701766,,,-88.8671875,-638.671875,-57.12890625,-66.89453125
1770773650.371225,,,-107.91015625,-967.7734375,-63.96484375,-79.58984375
1770773650.372274,,,-73.73046875,-590.8203125,-62.01171875,-62.01171875
1770773650.3733227,,,-69.82421875,-419.921875,-61.03515625,-66.89453125
1770773650.3743715,,,-110.83984375,-842.7734375,-62.5,-83.984375
1770773650.3754203,,,-126.46484375,-920.41015625,-64.94140625,-72.265625
1770773650.3764691,,,-70.3125,-581.54296875,-66.40625,-45.41015625
1770773650.3775177,,,-38.57421875,-398.4375,-69.82421875,-55.6640625
1770773650.3785665,,,-81.0546875,-739.74609375,-65.4296875,-65.4296875
1770773650.3796153,,,-128.90625,-919.43359375,-57.6171875,-74.21875
1770773650.380664,,,-92.28515625,-584.47265625,-60.546875,-75.68359375
1770773650.3858423,,,-57.6171875,-520.5078125,-61.03515625,-74.70703125
1770773650.3910203,,,-69.3359375,-558.10546875,-58.10546875,-66.89453125
1770773650.3961985,,,-115.234375,-578.125,-57.12890625,-67.87109375
1770773650.4013767,,,-104.00390625,-534.66796875,-53.7109375,-60.546875
1770773650.406555,,,-43.9453125,-624.51171875,-52.24609375,-36.62109375
1770773650.4117332,,,-48.33984375,-922.36328125,-55.17578125,-36.62109375
1770773650.4169111,,,-101.5625,-1000.0,-61.5234375,-49.31640625
1770773650.4220893,,,-109.375,-859.86328125,-64.453125,-69.82421875
1770773650.4272676,,,-54.19921875,-654.296875,-63.96484375,-55.17578125
1770773650.4324455,,,-33.203125,-868.65234375,-59.08203125,-24.90234375
1770773650.4376237,,,-86.9140625,-740.234375,-56.15234375,-45.8984375
1770773650.442802,,,-123.53515625,-458.49609375,-58.10546875,-66.89453125
1770773650.4464664,,,-85.9375,-708.49609375,-54.6875,-46.38671875
1770773650.4501312,,,-55.17578125,-830.56640625,-50.78125,-29.78515625
1770773650.4537957,,,-78.61328125,-547.8515625,-52.734375,-49.31640625
1770773650.4574604,,,-119.140625,-529.78515625,-52.734375,-68.359375
1770773650.461125,,,-92.28515625,-750.48828125,-50.29296875,-54.19921875
1770773650.4647894,,,-47.36328125,-1000.0,-51.26953125,-11.71875
1770773650.4684541,,,-58.10546875,-918.45703125,-49.31640625,-30.76171875
1770773650.4721186,,,-104.4921875,-590.33203125,-45.41015625,-46.875
1770773650.4757833,,,-97.16796875,-748.53515625,-41.015625,-16.11328125
1770773650.4794478,,,-52.734375,-1000.0,-41.50390625,-13.671875
1770773650.4831126,,,-34.66796875,-770.99609375,-45.41015625,-26.85546875
1770773650.486777,,,-63.4765625,-474.12109375,-43.45703125,-25.390625
1770773650.4903977,,,-71.77734375,-786.1328125,-41.50390625,-17.578125
1770773650.4940183,,,-37.59765625,-982.421875,-41.015625,-1.953125
1770773650.497639,,,-13.671875,-591.30859375,-42.48046875,-1.953125
1770773650.5012593,,,-39.0625,-449.70703125,-39.0625,-8.7890625
1770773650.50488,,,-80.56640625,-742.67578125,-38.57421875,-19.53125
1770773650.5085006,,,-37.109375,-992.67578125,-39.55078125,-21.484375
1770773650.5121212,,,13.671875,-823.2421875,-43.9453125,-7.32421875
1770773650.5157418,,,2.9296875,-618.65234375,-37.109375,-3.41796875
1770773650.5193624,,,-55.6640625,-898.92578125,-30.76171875,-32.71484375
1770773650.5229828,,,-27.34375,-732.421875,-40.0390625,-39.55078125
1770773650.5266035,,,35.15625,-344.23828125,-42.48046875,-15.13671875
1770773650.530224,,,2.9296875,-548.33984375,-37.109375,-10.7421875
1770773650.5329459,,,-61.5234375,-855.46875,-34.1796875,-28.3203125
1770773650.5356677,,,-71.77734375,-806.15234375,-38.57421875,-16.11328125
1770773650.5383894,,,-20.5078125,-471.6796875,-40.0390625,-0.9765625
1770773650.5411115,,,-7.32421875,-561.03515625,-40.52734375,-12.20703125
1770773650.5438333,,,-57.12890625,-950.1953125,-39.0625,-16.6015625
1770773650.546555,,,-72.75390625,-938.96484375,-39.55078125,-24.90234375
1770773650.5492768,,,-17.08984375,-642.578125,-40.0390625,-20.01953125
1770773650.5519986,,,-3.41796875,-687.98828125,-41.9921875,-14.6484375
1770773650.5547204,,,-11.23046875,-882.8125,-44.921875,-30.2734375
1770773650.5574424,,,-35.15625,-437.01171875,-42.48046875,-62.01171875
1770773650.5601642,,,-20.5078125,-283.203125,-41.50390625,-41.9921875
1770773650.562886,,,30.76171875,-642.578125,-38.57421875,-11.71875
1770773650.566557,,,22.94921875,-651.85546875,-41.015625,-19.04296875
1770773650.5702279,,,-6.34765625,-368.1640625,-45.8984375,-42.96875
1770773650.5738988,,,9.765625,-474.609375,-48.828125,-34.1796875
1770773650.5775697,,,48.828125,-725.09765625,-53.7109375,-7.32421875
1770773650.5812407,,,44.43359375,-816.89453125,-52.734375,-1.46484375
1770773650.5849113,,,2.9296875,-916.015625,-51.7578125,-19.04296875
1770773650.5885823,,,4.39453125,-946.77734375,-48.33984375,-35.64453125
1770773650.5922532,,,34.1796875,-998.53515625,-40.52734375,-10.7421875
1770773650.5959241,,,41.50390625,-865.234375,-43.9453125,-0.48828125
1770773650.599595,,,12.6953125,-430.6640625,-43.9453125,-15.13671875
1770773650.603266,,,-20.01953125,-540.0390625,-44.43359375,-16.11328125
1770773650.606937,,,9.27734375,-772.4609375,-50.78125,-9.765625
1770773650.6118014,,,24.90234375,-500.48828125,-51.7578125,-13.671875
1770773650.6166658,,,-1.953125,-346.6796875,-52.24609375,-5.859375
1770773650.6215305,,,-29.78515625,-679.6875,-51.7578125,-12.20703125
1770773650.626395,,,-14.16015625,-799.31640625,-47.8515625,-12.20703125
1770773650.6312594,,,11.23046875,-495.60546875,-45.8984375,2.9296875
1770773650.6361241,,,7.8125,-777.83203125,-48.828125,-29.78515625
1770773650.6409886,,,-37.109375,-1000.0,-46.875,-40.52734375
1770773650.645853,,,-31.25,-881.8359375,-41.9921875,-17.578125
1770773650.6507175,,,33.69140625,-718.75,-42.48046875,-7.32421875
1770773650.655582,,,31.73828125,-437.98828125,-44.921875,-6.34765625
1770773650.6604466,,,-25.390625,-661.62109375,-47.36328125,-8.7890625
1770773650.665311,,,7.8125,-787.59765625,-46.875,-1.46484375
1770773650.6690605,,,51.7578125,-405.76171875,-47.36328125,-3.90625
1770773650.6728098,,,8.7890625,-426.7578125,-40.52734375,-26.85546875
1770773650.6765592,,,-56.15234375,-734.86328125,-39.0625,-32.71484375
1770773650.6803083,,,-83.49609375,-667.48046875,-48.33984375,-37.59765625
1770773650.6840577,,,-25.390625,-476.07421875,-48.33984375,-32.2265625
1770773650.687807,,,-0.48828125,-822.75390625,-41.9921875,-14.6484375
1770773650.6915565,,,-25.390625,-1000.0,-40.0390625,-14.6484375
1770773650.6953058,,,-78.125,-752.9296875,-40.52734375,-34.1796875
1770773650.6990552,,,-61.5234375,-351.07421875,-44.921875,-41.50390625
1770773650.7028043,,,-2.9296875,-528.80859375,-41.50390625,-22.4609375
1770773650.7065537,,,-3.41796875,-760.25390625,-34.1796875,-11.23046875
1770773650.710303,,,-51.26953125,-748.53515625,-35.64453125,-27.83203125
1770773650.7143016,,,-57.12890625,-701.66015625,-42.48046875,-35.64453125
1770773650.7183003,,,-5.859375,-699.70703125,-44.43359375,-16.6015625
1770773650.7222989,,,7.32421875,-848.6328125,-42.48046875,-10.25390625
1770773650.7262974,,,-38.57421875,-541.015625,-48.33984375,-23.92578125
1770773650.730296,,,-68.84765625,-481.4453125,-49.8046875,-35.64453125
1770773650.7342944,,,-20.5078125,-875.48828125,-42.48046875,-7.8125
1770773650.7382932,,,5.37109375,-909.66796875,-43.45703125,5.37109375
1770773650.7422917,,,-27.34375,-559.5703125,-48.33984375,-33.69140625
1770773650.7462902,,,-48.828125,-470.21484375,-44.921875,-42.48046875
1770773650.750289,,,-16.11328125,-739.2578125,-45.8984375,-27.34375
1770773650.7542875,,,1.46484375,-880.859375,-50.29296875,-35.15625
1770773650.758286,,,-43.45703125,-616.69921875,-47.8515625,-41.50390625
1770773650.7621827,,,-80.078125,-493.65234375,-41.015625,-38.0859375
1770773650.7660797,,,-42.96875,-687.01171875,-41.50390625,-14.16015625
1770773650.7699766,,,-0.48828125,-693.359375,-43.45703125,1.953125
1770773650.7738733,,,-0.48828125,-757.32421875,-44.921875,3.90625
1770773650.77777,,,-28.3203125,-724.12109375,-47.36328125,-19.53125
1770773650.781667,,,-45.41015625,-877.9296875,-46.875,-31.73828125
1770773650.785564,,,-0.48828125,-916.50390625,-44.921875,-12.6953125
1770773650.7894607,,,43.45703125,-474.609375,-47.8515625,-26.85546875
1770773650.7933574,,,-11.71875,-515.13671875,-51.26953125,-43.9453125
1770773650.7972543,,,-42.48046875,-760.25390625,-47.8515625,-29.296875
1770773650.8011513,,,9.765625,-572.265625,-52.24609375,-20.01953125
1770773650.805048,,,54.19921875,-360.3515625,-50.29296875,-13.671875
1770773650.8085206,,,15.13671875,-610.3515625,-46.38671875,-12.6953125
1770773650.8119931,,,-38.57421875,-821.2890625,-48.828125,-37.59765625
1770773650.8154655,,,42.96875,-511.23046875,-55.6640625,14.16015625
1770773650.818938,,,83.0078125,-348.14453125,-56.640625,37.59765625
1770773650.8224106,,,20.01953125,-639.16015625,-57.6171875,-24.4140625
1770773650.825883,,,-29.296875,-1000.0,-65.4296875,-53.22265625
1770773650.8293555,,,10.25390625,-1000.0,-68.84765625,-24.4140625
1770773650.832828,,,79.58984375,-714.84375,-69.3359375,0.9765625
1770773650.8363006,,,64.94140625,-718.75,-67.3828125,1.953125
1770773650.8397732,,,10.25390625,-1000.0,-64.94140625,-7.8125
1770773650.8432455,,,15.625,-608.3984375,-67.87109375,-24.4140625
1770773650.846718,,,57.12890625,-324.21875,-68.84765625,6.8359375
1770773650.850509,,,63.4765625,-613.28125,-63.4765625,16.11328125
1770773650.8543,,,31.73828125,-622.55859375,-56.15234375,-9.27734375
1770773650.8580909,,,-1.953125,-409.1796875,-59.5703125,-6.8359375
1770773650.8618817,,,30.2734375,-505.37109375,-66.40625,-1.46484375
1770773650.8656726,,,56.640625,-744.140625,-62.98828125,-4.39453125
1770773650.8694634,,,26.85546875,-940.4296875,-60.546875,-1.953125
1770773650.8732545,,,-17.578125,-913.57421875,-61.5234375,-17.08984375
1770773650.8770454,,,8.7890625,-686.5234375,-62.5,-15.625
1770773650.8808362,,,57.6171875,-898.4375,-65.91796875,7.32421875
1770773650.8846273,,,44.43359375,-787.109375,-65.4296875,13.671875
1770773650.8884182,,,-20.99609375,-694.3359375,-63.4765625,-21.484375
1770773650.892209,,,-20.99609375,-994.140625,-61.5234375,-4.8828125
1770773650.896092,,,35.64453125,-862.3046875,-57.12890625,8.30078125
1770773650.8999748,,,37.109375,-517.08984375,-59.08203125,-28.80859375
1770773650.9038577,,,-19.04296875,-369.62890625,-62.01171875,-29.78515625
1770773650.9077406,,,-56.640625,-661.1328125,-60.546875,-36.1328125
1770773650.9116235,,,-8.7890625,-771.97265625,-60.546875,-19.04296875
1770773650.9155066,,,14.6484375,-791.015625,-59.08203125,5.37109375
1770773650.9193895,,,-17.08984375,-746.09375,-59.5703125,-15.625
1770773650.9232724,,,-42.48046875,-765.625,-62.01171875,-25.390625
1770773650.9271553,,,-14.6484375,-885.25390625,-64.453125,3.41796875
1770773650.9310381,,,26.85546875,-469.7265625,-64.94140625,-4.39453125
1770773650.934921,,,6.8359375,-313.96484375,-59.08203125,-13.671875
1770773650.938804,,,-42.48046875,-667.48046875,-58.59375,-21.484375
1770773650.94247,,,-18.5546875,-683.59375,-59.5703125,-16.6015625
1770773650.9461362,,,17.08984375,-505.859375,-57.6171875,-14.16015625
1770773650.9498024,,,5.37109375,-773.4375,-54.19921875,-34.66796875
1770773650.9534686,,,-39.0625,-878.41796875,-50.78125,-17.08984375
1770773650.9571347,,,-36.1328125,-775.87890625,-55.17578125,-22.4609375
1770773650.9608011,,,3.90625,-806.640625,-59.08203125,-31.73828125
1770773650.9644673,,,19.53125,-848.14453125,-61.03515625,-17.08984375
1770773650.9681334,,,-22.4609375,-949.21875,-62.01171875,-29.296875
1770773650.9717996,,,-54.6875,-755.859375,-64.453125,-39.55078125
1770773650.9754658,,,5.859375,-274.90234375,-64.453125,-27.83203125
1770773650.979132,,,35.15625,-416.9921875,-63.4765625,-10.7421875
1770773650.982798,,,-14.16015625,-671.875,-65.91796875,-18.5546875
1770773650.9864779,,,-47.36328125,-447.265625,-61.03515625,-19.04296875
1770773650.9901578,,,-8.7890625,-267.08984375,-55.17578125,1.46484375
1770773650.9938376,,,16.11328125,-562.98828125,-57.12890625,5.859375
1770773650.9975173,,,-18.06640625,-745.60546875,-58.59375,-12.20703125
1770773651.0011973,,,-64.94140625,-467.28515625,-57.12890625,-37.59765625
1770773651.004877,,,-46.38671875,-730.95703125,-58.10546875,-34.1796875
1770773651.0085568,,,0.0,-980.95703125,-59.08203125,-0.48828125
1770773651.0122368,,,-6.8359375,-998.046875,-58.10546875,0.9765625
1770773651.0159166,,,-35.15625,-645.99609375,-60.546875,-23.92578125
1770773651.0195963,,,-55.17578125,-332.51953125,-54.6875,-22.94921875
1770773651.0232763,,,-17.08984375,-619.140625,-49.31640625,9.27734375
1770773651.026956,,,9.27734375,-601.5625,-54.6875,18.5546875
1770773651.0342624,,,-19.04296875,-315.4296875,-56.640625,-1.953125
1770773651.0415688,,,-42.48046875,-379.39453125,-53.7109375,-23.4375
1770773651.048875,,,-23.92578125,-688.4765625,-57.12890625,-24.90234375
1770773651.0561814,,,-1.46484375,-594.7265625,-62.01171875,-20.5078125
1770773651.0634878,,,-25.390625,-421.38671875,-57.12890625,-25.390625
1770773651.070794,,,-65.91796875,-795.41015625,-48.828125,-40.0390625
1770773651.0781002,,,-33.203125,-1000.0,-46.38671875,-11.71875
1770773651.0854065,,,7.32421875,-739.74609375,-43.9453125,2.9296875
1770773651.0927129,,,-21.484375,-391.6015625,-43.45703125,-12.20703125
1770773651.1000192,,,-71.77734375,-769.04296875,-43.9453125,-23.4375
1770773651.1073256,,,-55.6640625,-922.36328125,-43.9453125,-29.78515625
1770773651.114632,,,-4.8828125,-536.62109375,-42.96875,-23.4375
1770773651.1159317,,,-5.37109375,-324.70703125,-44.921875,-30.76171875
1770773651.1172314,,,-77.1484375,-611.81640625,-49.31640625,-43.45703125
1770773651.1185312,,,-84.47265625,-859.86328125,-48.828125,-40.52734375
1770773651.1198308,,,-0.9765625,-516.11328125,-46.875,-21.97265625
1770773651.1211307,,,18.06640625,-429.19921875,-47.8515625,-12.20703125
1770773651.1224303,,,-24.4140625,-831.0546875,-47.8515625,-19.04296875
1770773651.1237302,,,-42.96875,-944.82421875,-47.8515625,-13.18359375
1770773651.12503,,,5.37109375,-598.14453125,-44.43359375,-9.765625
1770773651.1263297,,,34.66796875,-419.43359375,-43.9453125,-10.25390625
1770773651.1276295,,,-9.27734375,-730.95703125,-43.9453125,-14.6484375
1770773651.1289291,,,-57.12890625,-796.38671875,-43.45703125,-27.34375
1770773651.130229,,,-6.34765625,-416.9921875,-45.8984375,-30.2734375
1770773651.1341121,,,43.9453125,-554.6875,-53.7109375,-30.76171875
1770773651.1379952,,,7.32421875,-955.56640625,-58.10546875,-15.625
1770773651.1418784,,,-23.92578125,-816.40625,-54.6875,-25.390625
1770773651.1457617,,,-28.3203125,-381.8359375,-49.8046875,-20.01953125
1770773651.1496449,,,-19.04296875,-431.15234375,-49.31640625,-13.671875
1770773651.153528,,,-19.53125,-899.4140625,-48.828125,-1.953125
1770773651.157411,,,-73.2421875,-937.5,-44.921875,-4.39453125
1770773651.1612942,,,-82.51953125,-437.01171875,-54.19921875,-27.34375
1770773651.1651773,,,-27.83203125,-415.0390625,-58.59375,-21.97265625
1770773651.1690607,,,1.46484375,-676.7578125,-53.7109375,-31.25
1770773651.1729438,,,-35.15625,-602.5390625,-59.08203125,-39.55078125
1770773651.176827,,,-65.4296875,-417.96875,-59.08203125,-41.9921875
1770773651.1806507,,,-28.3203125,-559.5703125,-52.24609375,-28.3203125
1770773651.1844742,,,9.27734375,-746.09375,-58.59375,-13.18359375
1770773651.188298,,,0.9765625,-468.75,-58.10546875,10.25390625
1770773651.1921217,,,-44.43359375,-443.359375,-51.26953125,-19.53125
1770773651.1959453,,,-54.19921875,-774.90234375,-53.7109375,-42.96875
1770773651.199769,,,-19.04296875,-1000.0,-59.08203125,-12.20703125
1770773651.2035928,,,-7.8125,-791.9921875,-61.03515625,-22.94921875
1770773651.2074163,,,-47.36328125,-377.9296875,-59.08203125,-39.0625
1770773651.21124,,,-63.4765625,-668.9453125,-58.59375,-27.34375
1770773651.2150638,,,-34.66796875,-916.50390625,-56.15234375,-32.2265625
1770773651.2188873,,,-22.4609375,-456.0546875,-57.12890625,-30.76171875
1770773651.222711,,,-52.734375,-316.40625,-55.17578125,-26.85546875
1770773651.226393,,,-49.8046875,-634.765625,-52.734375,-28.3203125
1770773651.2300751,,,-6.8359375,-625.9765625,-51.7578125,-16.6015625
1770773651.233757,,,-6.8359375,-354.00390625,-55.6640625,-16.11328125
1770773651.2374392,,,-22.94921875,-398.4375,-55.17578125,-17.578125
1770773651.241121,,,-44.921875,-644.04296875,-53.7109375,-21.484375
1770773651.244803,,,-30.2734375,-817.3828125,-57.12890625,-13.18359375
1770773651.248485,,,0.9765625,-762.20703125,-48.828125,-10.7421875
1770773651.252167,,,-10.25390625,-625.0,-45.41015625,-22.94921875
1770773651.2558491,,,-43.9453125,-917.48046875,-48.828125,-10.25390625
1770773651.259531,,,-42.96875,-863.76953125,-48.33984375,-11.23046875
1770773651.2632132,,,-2.9296875,-304.19921875,-47.36328125,-31.25
1770773651.266895,,,0.0,-455.56640625,-47.8515625,-24.4140625
1770773651.270645,,,-46.38671875,-725.09765625,-49.31640625,-32.71484375
1770773651.2743945,,,-53.7109375,-468.75,-52.24609375,-32.71484375
1770773651.2781444,,,-13.18359375,-362.79296875,-55.6640625,-11.23046875
1770773651.281894,,,-6.8359375,-655.76171875,-54.19921875,-12.20703125
1770773651.2856438,,,-34.66796875,-821.77734375,-53.7109375,-22.4609375
1770773651.2893937,,,-51.7578125,-803.22265625,-59.08203125,-34.1796875
1770773651.2931433,,,-31.73828125,-932.6171875,-64.94140625,-33.69140625
1770773651.2968931,,,-11.71875,-984.375,-69.82421875,-19.04296875
1770773651.3006427,,,-27.34375,-868.65234375,-71.2890625,-22.4609375
1770773651.3043926,,,-48.33984375,-525.87890625,-58.10546875,-25.87890625
1770773651.3081422,,,-41.015625,-416.50390625,-53.22265625,-18.5546875
1770773651.311892,,,-11.23046875,-737.79296875,-57.6171875,-14.6484375
1770773651.3168485,,,21.484375,-730.95703125,-53.22265625,-13.671875
1770773651.321805,,,-14.6484375,-359.375,-49.8046875,-43.9453125
1770773651.3267615,,,-35.64453125,-423.33984375,-49.31640625,-37.109375
1770773651.331718,,,-4.8828125,-714.35546875,-55.6640625,-15.625
1770773651.3366745,,,7.8125,-693.359375,-62.5,-25.390625
1770773651.341631,,,-5.37109375,-786.62109375,-58.59375,-19.04296875
1770773651.3465877,,,-22.4609375,-943.359375,-58.10546875,-18.5546875
1770773651.3515441,,,-2.9296875,-966.30859375,-62.98828125,-15.625
1770773651.3565006,,,10.25390625,-742.67578125,-60.05859375,-26.85546875
1770773651.361457,,,4.8828125,-318.359375,-60.05859375,-41.9921875
1770773651.3664136,,,-16.11328125,-485.3515625,-58.10546875,-28.80859375
1770773651.37137,,,9.27734375,-690.4296875,-59.08203125,-17.08984375
1770773651.373922,,,28.3203125,-458.984375,-61.5234375,-20.5078125
1770773651.3764741,,,-0.9765625,-349.12109375,-58.10546875,-34.66796875
1770773651.3790262,,,-45.41015625,-687.98828125,-59.08203125,-23.92578125
1770773651.3815784,,,-38.0859375,-856.4453125,-62.01171875,-15.625
1770773651.3841305,,,2.44140625,-633.7890625,-58.59375,-29.78515625
1770773651.3866825,,,4.8828125,-827.63671875,-59.5703125,-17.08984375
1770773651.3892345,,,-47.8515625,-1000.0,-57.12890625,-19.53125
1770773651.3917866,,,-45.41015625,-863.76953125,-53.22265625,-20.01953125
1770773651.3943386,,,23.92578125,-442.3828125,-52.24609375,-32.2265625
1770773651.3968909,,,33.203125,-217.28515625,-57.12890625,-37.109375
1770773651.399443,,,-2.44140625,-656.25,-59.5703125,-22.4609375
1770773651.401995,,,-14.6484375,-737.3046875,-55.17578125,-39.0625
1770773651.4069135,,,11.23046875,-293.45703125,-55.6640625,-61.5234375
1770773651.411832,,,26.85546875,-288.0859375,-55.17578125,-51.26953125
1770773651.4167507,,,-1.46484375,-560.05859375,-52.24609375,-41.50390625
1770773651.4216692,,,-33.203125,-529.296875,-56.15234375,-42.48046875
1770773651.4265878,,,-5.37109375,-355.95703125,-59.08203125,-23.92578125
1770773651.4315064,,,8.30078125,-721.6796875,-52.734375,-18.06640625
1770773651.4364252,,,-20.99609375,-1000.0,-52.734375,-22.94921875
1770773651.4413438,,,-48.33984375,-854.00390625,-60.546875,-40.52734375
1770773651.4462624,,,-16.6015625,-379.8828125,-56.640625,-37.109375
1770773651.451181,,,11.71875,-396.484375,-52.734375,-10.7421875
1770773651.4560995,,,-0.48828125,-715.33203125,-56.640625,-6.8359375
1770773651.461018,,,-28.3203125,-519.04296875,-58.59375,-26.3671875
1770773651.4649298,,,-39.0625,-283.203125,-54.19921875,-36.62109375
1770773651.4688413,,,-2.9296875,-554.6875,-51.7578125,-18.5546875
1770773651.472753,,,-0.48828125,-735.3515625,-58.10546875,-16.11328125
1770773651.4766648,,,-41.9921875,-428.22265625,-57.12890625,-34.1796875
1770773651.4805763,,,-51.7578125,-381.34765625,-53.7109375,-28.3203125
1770773651.484488,,,-21.484375,-779.78515625,-55.17578125,-8.7890625
1770773651.4883997,,,18.5546875,-873.046875,-53.7109375,0.0
1770773651.4923112,,,-2.44140625,-432.6171875,-51.7578125,-10.7421875
1770773651.496223,,,-55.17578125,-275.390625,-47.8515625,-35.15625
1770773651.5001347,,,-32.71484375,-680.6640625,-49.31640625,-22.94921875
1770773651.5040462,,,8.30078125,-952.63671875,-52.24609375,1.953125
1770773651.507958,,,9.765625,-520.99609375,-50.29296875,-1.953125
1770773651.5116596,,,-20.5078125,-353.515625,-54.19921875,-24.4140625
1770773651.515361,,,-11.71875,-745.1171875,-57.6171875,-13.18359375
1770773651.5190628,,,14.6484375,-736.81640625,-55.6640625,-0.48828125
1770773651.5227642,,,30.2734375,-359.86328125,-60.05859375,-6.8359375
1770773651.526466,,,8.7890625,-365.234375,-64.94140625,-7.8125
1770773651.5301676,,,-19.53125,-807.6171875,-56.640625,-29.78515625
1770773651.533869,,,6.8359375,-887.6953125,-53.7109375,-14.6484375
1770773651.5375707,,,40.0390625,-434.08203125,-58.59375,0.9765625
1770773651.5412722,,,0.0,-482.421875,-55.6640625,-44.43359375
1770773651.5449739,,,-53.7109375,-842.7734375,-57.12890625,-65.91796875
1770773651.5486753,,,-35.64453125,-671.38671875,-61.03515625,-49.31640625
1770773651.552377,,,-5.37109375,-373.046875,-59.5703125,-58.10546875
1770773651.556158,,,-25.87890625,-584.47265625,-55.6640625,-31.25
1770773651.5599391,,,-45.41015625,-934.08203125,-53.22265625,-5.37109375
1770773651.5637202,,,-27.83203125,-776.85546875,-56.15234375,-2.44140625
1770773651.5675013,,,-10.7421875,-428.22265625,-60.546875,-12.20703125
1770773651.5712824,,,-24.90234375,-623.046875,-58.59375,-18.06640625
1770773651.5750635,,,-64.94140625,-1000.0,-51.26953125,-24.4140625
1770773651.5788445,,,-45.41015625,-884.27734375,-49.31640625,-37.109375
1770773651.5826256,,,-7.8125,-446.2890625,-55.17578125,-20.01953125
1770773651.5864067,,,-22.94921875,-692.3828125,-55.6640625,2.9296875
1770773651.5901878,,,-48.33984375,-906.73828125,-55.6640625,-13.18359375
1770773651.5939689,,,-60.546875,-632.32421875,-59.08203125,-29.296875
1770773651.59775,,,-21.97265625,-512.20703125,-57.6171875,-20.01953125
1770773651.6014621,,,3.90625,-628.90625,-47.36328125,-0.9765625
1770773651.605174,,,-37.109375,-620.1171875,-43.45703125,-2.44140625
1770773651.6088862,,,-43.9453125,-414.55078125,-45.41015625,6.8359375
1770773651.6125982,,,-0.48828125,-485.83984375,-45.8984375,0.0
1770773651.6163104,,,11.23046875,-732.421875,-53.7109375,-15.13671875
1770773651.6200225,,,-3.41796875,-894.53125,-53.22265625,-18.06640625
1770773651.6237345,,,-41.015625,-958.984375,-56.15234375,-33.69140625
1770773651.6274467,,,-32.2265625,-955.56640625,-59.08203125,-36.62109375
1770773651.6311586,,,-0.48828125,-996.58203125,-53.7109375,-8.7890625
1770773651.6348708,,,-1.46484375,-867.1875,-50.78125,-14.6484375
1770773651.6385827,,,-33.203125,-389.16015625,-48.828125,-44.921875
1770773651.642295,,,-30.2734375,-510.7421875,-46.875,-17.08984375
1770773651.6471431,,,6.8359375,-735.83984375,-41.50390625,15.625
1770773651.6519914,,,14.16015625,-388.18359375,-41.015625,-11.23046875
1770773651.6568394,,,-1.46484375,-312.5,-42.48046875,0.0
1770773651.6616876,,,-31.73828125,-682.6171875,-38.57421875,-9.27734375
1770773651.6665359,,,-3.41796875,-812.01171875,-44.43359375,-29.78515625
1770773651.6713839,,,21.484375,-844.23828125,-47.36328125,-8.30078125
1770773651.676232,,,-1.953125,-788.0859375,-46.875,-27.83203125
1770773651.6810803,,,-32.71484375,-711.42578125,-52.24609375,-20.99609375
1770773651.6859286,,,-15.13671875,-1000.0,-41.50390625,5.859375
1770773651.6907768,,,8.7890625,-774.4140625,-38.0859375,-10.25390625
1770773651.6956248,,,-10.7421875,-351.5625,-44.43359375,-34.1796875
1770773651.700473,,,-50.29296875,-683.59375,-47.36328125,-18.5546875
1770773651.7030902,,,-41.50390625,-858.88671875,-46.38671875,-15.13671875
1770773651.7057073,,,0.0,-376.953125,-50.29296875,-10.25390625
1770773651.7083244,,,6.8359375,-313.96484375,-51.7578125,6.8359375
1770773651.7109418,,,-26.3671875,-568.84765625,-45.41015625,-6.8359375
1770773651.713559,,,-42.48046875,-582.51953125,-43.45703125,-16.6015625
1770773651.716176,,,-27.83203125,-749.51171875,-45.8984375,-24.90234375
1770773651.7187932,,,20.01953125,-891.6015625,-43.9453125,-11.23046875
1770773651.7214103,,,3.41796875,-917.48046875,-43.45703125,-2.44140625
1770773651.7240274,,,-39.0625,-705.078125,-49.31640625,-27.34375
1770773651.7266448,,,1.953125,-291.015625,-46.875,-8.7890625
1770773651.7292619,,,11.71875,-463.37890625,-47.8515625,7.8125
1770773651.731879,,,-17.08984375,-706.0546875,-55.17578125,-12.20703125
1770773651.735687,,,-44.43359375,-687.98828125,-52.24609375,-13.671875
1770773651.7394948,,,-12.20703125,-433.59375,-54.19921875,-22.94921875
1770773651.7433028,,,16.11328125,-546.875,-54.19921875,-9.765625
1770773651.7471106,,,9.765625,-781.73828125,-50.78125,0.48828125
1770773651.7509186,,,-13.18359375,-437.01171875,-51.7578125,-37.59765625
1770773651.7547266,,,-11.23046875,-577.63671875,-51.7578125,-45.41015625
1770773651.7585344,,,12.20703125,-886.71875,-50.29296875,-18.5546875
1770773651.7623425,,,19.04296875,-854.4921875,-54.19921875,-8.30078125
1770773651.7661502,,,11.23046875,-352.5390625,-55.6640625,-3.90625
1770773651.7699583,,,-15.625,-146.484375,-48.828125,-17.578125
1770773651.773766,,,4.39453125,-479.4921875,-50.29296875,-20.5078125
1770773651.777574,,,22.4609375,-460.9375,-53.7109375,-20.01953125
1770773651.7824354,,,-0.48828125,-163.0859375,-56.640625,-32.71484375
1770773651.7872968,,,3.90625,-240.72265625,-56.15234375,-33.69140625
1770773651.7921581,,,24.4140625,-469.23828125,-46.38671875,-27.34375
1770773651.7970195,,,20.99609375,-536.1328125,-43.9453125,-43.45703125
1770773651.8018808,,,19.53125,-647.94921875,-47.8515625,-40.0390625
1770773651.8067422,,,2.9296875,-785.64453125,-45.8984375,-24.90234375
1770773651.8116033,,,-0.48828125,-952.63671875,-42.96875,-19.53125
1770773651.8164647,,,37.109375,-855.95703125,-44.921875,-4.39453125
1770773651.821326,,,27.34375,-347.16796875,-48.828125,-15.625
1770773651.8261874,,,-27.34375,-396.484375,-48.33984375,-20.01953125
1770773651.8310487,,,-32.2265625,-648.4375,-46.875,-3.90625
1770773651.83591,,,6.8359375,-410.15625,-41.50390625,1.953125
1770773651.8409014,,,8.7890625,-242.1875,-41.015625,-6.8359375
1770773651.845893,,,-59.08203125,-577.1484375,-51.7578125,-30.76171875
1770773651.8508844,,,-76.171875,-818.359375,-62.01171875,-41.015625
1770773651.8558757,,,-23.92578125,-459.9609375,-64.453125,-24.4140625
1770773651.860867,,,1.953125,-366.2109375,-61.03515625,-17.08984375
1770773651.8658586,,,-20.5078125,-806.15234375,-60.546875,-2.9296875
1770773651.87085,,,-40.52734375,-862.3046875,-60.05859375,9.27734375
1770773651.8758414,,,-7.32421875,-703.125,-59.08203125,3.41796875
1770773651.8808327,,,18.5546875,-604.98046875,-59.08203125,-2.44140625
1770773651.8858242,,,-3.41796875,-709.9609375,-61.03515625,4.39453125
1770773651.8908157,,,-26.3671875,-845.21484375,-62.5,-10.25390625
1770773651.895807,,,0.48828125,-445.3125,-60.546875,-18.06640625
1770773651.898423,,,6.8359375,-362.79296875,-62.01171875,1.46484375
1770773651.901039,,,-8.7890625,-608.88671875,-64.94140625,-13.18359375
1770773651.9036548,,,-15.13671875,-624.0234375,-63.4765625,-19.04296875
1770773651.9062707,,,-8.7890625,-379.8828125,-58.10546875,6.8359375
1770773651.9088867,,,17.578125,-494.140625,-54.6875,3.90625
1770773651.9115024,,,37.59765625,-916.015625,-52.24609375,-5.859375
1770773651.9141183,,,8.7890625,-953.61328125,-52.734375,-3.41796875
1770773651.9167342,,,-18.5546875,-559.5703125,-59.08203125,-7.8125
1770773651.9193501,,,18.5546875,-552.24609375,-58.59375,0.0
1770773651.921966,,,41.50390625,-842.28515625,-55.6640625,10.7421875
1770773651.924582,,,-0.48828125,-727.5390625,-56.640625,5.37109375
1770773651.927198,,,-46.875,-667.96875,-56.15234375,-13.18359375
1770773651.932329,,,-24.90234375,-725.09765625,-52.734375,-6.34765625
1770773651.9374597,,,-7.32421875,-897.94921875,-52.24609375,-0.48828125
1770773651.9425907,,,-2.44140625,-607.421875,-50.78125,-14.16015625
1770773651.9477217,,,-15.625,-235.83984375,-52.734375,-18.5546875
1770773651.9528525,,,-26.85546875,-567.3828125,-58.59375,-12.20703125
1770773651.9579835,,,31.73828125,-975.09765625,-62.98828125,26.85546875
1770773651.9631145,,,63.96484375,-699.21875,-68.359375,54.6875
1770773651.9682453,,,17.08984375,-243.1640625,-59.5703125,19.53125
1770773651.9733763,,,-15.13671875,-610.83984375,-48.828125,-16.11328125
1770773651.9785073,,,29.296875,-873.046875,-46.38671875,-1.46484375
1770773651.983638,,,85.44921875,-323.73046875,-45.8984375,21.484375
1770773651.988769,,,57.12890625,-178.22265625,-45.8984375,27.83203125
1770773651.9911425,,,32.71484375,-489.74609375,-44.43359375,22.94921875
1770773651.993516,,,70.80078125,-423.33984375,-47.36328125,53.22265625
1770773651.9958894,,,81.54296875,-378.41796875,-45.41015625,62.01171875
1770773651.9982631,,,54.6875,-665.52734375,-41.50390625,52.24609375
1770773652.0006366,,,33.203125,-783.69140625,-41.50390625,60.05859375
1770773652.00301,,,42.48046875,-878.41796875,-45.8984375,49.31640625
1770773652.0053835,,,62.98828125,-705.56640625,-53.22265625,57.6171875
1770773652.007757,,,68.359375,-450.1953125,-48.828125,56.15234375
1770773652.0101304,,,21.97265625,-778.80859375,-46.38671875,63.4765625
1770773652.012504,,,21.97265625,-706.54296875,-53.7109375,77.1484375
1770773652.0148776,,,66.89453125,-381.8359375,-59.08203125,71.77734375
1770773652.017251,,,62.5,-597.65625,-58.59375,64.94140625
1770773652.0210142,,,33.69140625,-767.08984375,-64.94140625,51.26953125
1770773652.0247774,,,32.2265625,-541.9921875,-71.2890625,55.6640625
1770773652.0285408,,,58.10546875,-325.1953125,-68.359375,54.6875
1770773652.032304,,,83.984375,-602.05078125,-64.453125,55.6640625
1770773652.0360672,,,57.12890625,-809.08203125,-70.3125,56.640625
1770773652.0398307,,,19.53125,-742.1875,-81.54296875,43.45703125
1770773652.043594,,,64.94140625,-860.3515625,-81.54296875,23.92578125
1770773652.047357,,,74.21875,-964.35546875,-73.2421875,28.80859375
1770773652.0511203,,,54.19921875,-996.09375,-68.84765625,44.43359375
1770773652.0548835,,,41.015625,-564.453125,-68.84765625,21.97265625
1770773652.058647,,,55.17578125,-225.5859375,-68.84765625,10.7421875
1770773652.06241,,,89.84375,-520.01953125,-71.77734375,5.859375
1770773652.0686843,,,90.33203125,-500.48828125,-73.2421875,20.01953125
1770773652.0749586,,,74.21875,-237.79296875,-72.75390625,8.30078125
1770773652.0812328,,,71.2890625,-355.95703125,-69.3359375,2.9296875
1770773652.087507,,,97.16796875,-594.23828125,-63.96484375,21.97265625
1770773652.0937812,,,114.74609375,-479.00390625,-62.01171875,16.11328125
1770773652.1000555,,,86.9140625,-570.3125,-59.5703125,6.34765625
1770773652.10633,,,63.4765625,-800.78125,-59.08203125,15.625
1770773652.1126041,,,99.12109375,-931.640625,-58.59375,34.66796875
1770773652.1188784,,,112.3046875,-648.92578125,-56.640625,26.3671875
1770773652.1251526,,,78.61328125,-345.703125,-56.15234375,18.06640625
1770773652.1314268,,,44.43359375,-688.4765625,-56.15234375,25.87890625
1770773652.137701,,,63.96484375,-758.7890625,-56.15234375,25.87890625
1770773652.1400394,,,96.6796875,-424.8046875,-55.6640625,17.578125
1770773652.1423776,,,67.87109375,-183.59375,-53.7109375,10.25390625
1770773652.144716,,,24.4140625,-516.11328125,-52.24609375,8.30078125
1770773652.1470544,,,36.1328125,-674.8046875,-57.12890625,-1.953125
1770773652.1493926,,,82.51953125,-307.12890625,-56.640625,8.30078125
1770773652.151731,,,79.58984375,-515.13671875,-56.15234375,-0.48828125
1770773652.1540694,,,12.20703125,-912.109375,-57.12890625,-20.01953125
1770773652.1564076,,,3.90625,-714.84375,-53.7109375,-1.953125
1770773652.158746,,,45.41015625,-298.828125,-58.10546875,1.46484375
1770773652.1610844,,,36.1328125,-195.80078125,-62.98828125,-5.859375
1770773652.1634226,,,-6.34765625,-580.56640625,-54.19921875,-13.671875
1770773652.165761,,,-18.06640625,-635.7421875,-53.22265625,-25.87890625
1770773652.1695275,,,6.8359375,-218.75,-63.96484375,-10.25390625
1770773652.173294,,,18.06640625,-419.43359375,-67.3828125,0.0
1770773652.1770606,,,10.25390625,-854.4921875,-66.40625,-15.13671875
1770773652.1808274,,,-11.23046875,-849.12109375,-67.87109375,-28.3203125
1770773652.184594,,,6.34765625,-255.37109375,-69.3359375,-20.01953125
1770773652.1883605,,,14.6484375,-391.11328125,-71.2890625,-8.30078125
1770773652.192127,,,-17.08984375,-831.0546875,-72.75390625,-20.5078125
1770773652.1958935,,,-22.94921875,-496.58203125,-72.265625,-22.4609375
1770773652.19966,,,-8.30078125,-80.56640625,-76.171875,-29.296875
1770773652.2034268,,,-2.44140625,-181.15234375,-74.70703125,-24.90234375
1770773652.2071934,,,7.32421875,-663.57421875,-71.2890625,0.48828125
1770773652.21096,,,-0.9765625,-496.58203125,-77.1484375,-16.6015625
1770773652.2147102,,,-25.87890625,-83.49609375,-74.70703125,-53.22265625
1770773652.2184606,,,-9.765625,-349.12109375,-65.91796875,-43.45703125
1770773652.222211,,,3.41796875,-508.30078125,-71.77734375,-33.69140625
1770773652.2259612,,,-17.08984375,-182.12890625,-73.2421875,-54.19921875
1770773652.2297115,,,-53.7109375,-269.04296875,-68.84765625,-70.3125
1770773652.233462,,,-33.69140625,-735.83984375,-70.80078125,-54.19921875
1770773652.2372124,,,-20.5078125,-926.7578125,-71.2890625,-31.25
1770773652.2409627,,,-58.59375,-602.5390625,-68.84765625,-37.109375
1770773652.244713,,,-83.0078125,-194.82421875,-68.84765625,-36.62109375
1770773652.2484634,,,-54.19921875,-595.703125,-71.77734375,-25.390625
1770773652.2522137,,,-30.76171875,-854.4921875,-73.2421875,-6.34765625
1770773652.255964,,,-37.59765625,-255.37109375,-73.73046875,-28.3203125
1770773652.2597907,,,-55.17578125,-126.953125,-74.21875,-46.875
1770773652.2636173,,,-58.59375,-457.03125,-70.3125,-27.83203125
1770773652.267444,,,-33.203125,-424.8046875,-66.40625,-20.99609375
1770773652.2712703,,,-33.203125,-189.453125,-63.4765625,-11.71875
1770773652.275097,,,-73.2421875,-290.52734375,-64.94140625,-14.6484375
1770773652.2789235,,,-79.58984375,-786.62109375,-69.82421875,-47.8515625
1770773652.2827501,,,-39.55078125,-803.22265625,-74.21875,-43.9453125
1770773652.2865767,,,-28.3203125,-317.3828125,-76.171875,-19.53125
1770773652.2904034,,,-55.6640625,-562.01171875,-78.61328125,-26.85546875
1770773652.2942297,,,-82.03125,-960.9375,-76.171875,-24.4140625
1770773652.2980564,,,-51.7578125,-639.6484375,-75.68359375,-12.6953125
1770773652.301883,,,-31.73828125,-194.3359375,-75.68359375,-23.92578125
1770773652.3056378,,,-51.26953125,-430.6640625,-75.68359375,-39.55078125
1770773652.3093925,,,-94.23828125,-758.7890625,-77.63671875,-48.33984375
1770773652.3131473,,,-73.2421875,-454.58984375,-73.2421875,-43.45703125
1770773652.316902,,,-54.6875,-250.48828125,-70.80078125,-31.73828125
1770773652.3206568,,,-56.15234375,-537.59765625,-69.82421875,-36.62109375
1770773652.3244116,,,-78.61328125,-998.53515625,-66.89453125,-41.9921875
1770773652.3281662,,,-71.2890625,-813.96484375,-62.98828125,-49.8046875
1770773652.331921,,,-26.3671875,-354.00390625,-62.98828125,-47.36328125
1770773652.3356757,,,-29.296875,-641.6015625,-63.4765625,-22.94921875
1770773652.3394306,,,-49.31640625,-920.41015625,-63.4765625,-17.08984375
1770773652.3431852,,,-62.5,-468.26171875,-66.40625,-27.83203125
1770773652.34694,,,-28.3203125,-363.28125,-67.87109375,-37.59765625
1770773652.3507512,,,-2.9296875,-795.41015625,-69.82421875,-34.1796875
1770773652.3545623,,,-16.11328125,-758.30078125,-67.87109375,-34.1796875
1770773652.3583734,,,-40.0390625,-388.671875,-62.5,-30.76171875
1770773652.3621848,,,-18.06640625,-443.359375,-60.05859375,-18.5546875
1770773652.365996,,,25.390625,-711.42578125,-57.6171875,-11.23046875
1770773652.369807,,,3.41796875,-913.57421875,-59.5703125,-28.3203125
1770773652.3736181,,,-26.85546875,-857.421875,-63.4765625,-42.96875
1770773652.3774292,,,-16.11328125,-640.625,-60.546875,-24.90234375
1770773652.3812404,,,-0.48828125,-868.65234375,-56.15234375,-1.953125
1770773652.3850517,,,-6.34765625,-789.55078125,-58.10546875,2.44140625
1770773652.3888628,,,-39.0625,-327.63671875,-60.546875,-26.85546875
1770773652.392674,,,-48.33984375,-506.34765625,-60.546875,-24.90234375
1770773652.396442,,,-16.11328125,-698.2421875,-54.6875,-7.32421875
1770773652.4002101,,,7.32421875,-374.51171875,-48.828125,-20.99609375
1770773652.4039783,,,-15.625,-280.76171875,-50.78125,-18.5546875
1770773652.4077463,,,-36.62109375,-669.43359375,-48.33984375,-4.8828125
1770773652.4115143,,,1.953125,-825.68359375,-50.29296875,-7.32421875
1770773652.4152825,,,25.87890625,-801.7578125,-53.7109375,-5.37109375
1770773652.4190507,,,15.625,-678.7109375,-55.17578125,-1.46484375
1770773652.4228187,,,-0.9765625,-667.48046875,-53.22265625,23.92578125
1770773652.4265866,,,37.109375,-942.3828125,-56.640625,65.4296875
1770773652.4303548,,,54.19921875,-444.82421875,-62.98828125,27.34375
1770773652.434123,,,0.0,-395.01953125,-59.5703125,-14.16015625
1770773652.437891,,,-62.01171875,-788.0859375,-61.5234375,-36.1328125
1770773652.441598,,,-70.3125,-578.125,-62.01171875,-66.89453125
1770773652.4453046,,,-24.4140625,-278.3203125,-56.640625,-36.1328125
1770773652.4490116,,,-41.50390625,-310.546875,-61.03515625,-41.9921875
1770773652.4527183,,,-76.66015625,-536.1328125,-66.40625,-51.26953125
1770773652.4564252,,,-80.56640625,-587.890625,-62.01171875,-49.8046875
1770773652.4601321,,,-97.16796875,-761.71875,-68.359375,-64.94140625
1770773652.4638388,,,-100.5859375,-867.1875,-68.84765625,-72.75390625
1770773652.4675457,,,-98.14453125,-955.56640625,-67.87109375,-61.03515625
1770773652.4712524,,,-98.6328125,-865.72265625,-72.265625,-69.82421875
1770773652.4749594,,,-65.91796875,-334.9609375,-70.80078125,-80.078125
1770773652.478666,,,-46.875,-381.8359375,-74.21875,-46.875
1770773652.482373,,,-41.9921875,-657.2265625,-77.1484375,-44.921875
1770773652.486198,,,-62.01171875,-427.734375,-78.125,-54.19921875
1770773652.4900227,,,-45.41015625,-242.67578125,-80.078125,-40.0390625
1770773652.4938474,,,10.25390625,-549.8046875,-81.0546875,-21.484375
1770773652.4976723,,,10.25390625,-690.4296875,-83.49609375,-48.33984375
1770773652.5014973,,,-40.0390625,-419.43359375,-82.03125,-52.24609375
1770773652.505322,,,-12.6953125,-665.0390625,-82.03125,-53.22265625
1770773652.5091467,,,38.57421875,-963.37890625,-76.171875,-52.734375
1770773652.5129716,,,-0.48828125,-869.140625,-76.171875,-35.64453125
1770773652.5167966,,,-25.390625,-478.02734375,-75.68359375,-39.0625
1770773652.5206213,,,-24.4140625,-314.453125,-68.84765625,-23.4375
1770773652.524446,,,-3.41796875,-713.37890625,-67.87109375,-5.37109375
1770773652.528271,,,24.90234375,-819.3359375,-65.91796875,-14.16015625
1770773652.5330813,,,7.8125,-370.1171875,-62.5,-6.34765625
1770773652.5378914,,,-17.08984375,-337.40234375,-63.96484375,-20.99609375
1770773652.5427017,,,-10.7421875,-682.12890625,-64.94140625,-35.64453125
1770773652.547512,,,19.04296875,-649.90234375,-60.05859375,-17.08984375
1770773652.5523221,,,4.39453125,-397.94921875,-59.5703125,-17.578125
1770773652.5571325,,,-43.45703125,-750.48828125,-61.03515625,-25.87890625
1770773652.5619428,,,-31.73828125,-1000.0,-57.6171875,-9.27734375
1770773652.566753,,,-2.44140625,-768.06640625,-58.59375,-13.18359375
1770773652.5715632,,,-2.9296875,-361.328125,-62.01171875,-40.52734375
1770773652.5763736,,,-51.7578125,-506.34765625,-56.15234375,-37.59765625
1770773652.5811837,,,-75.1953125,-747.55859375,-58.59375,-38.57421875
1770773652.585994,,,-29.78515625,-538.57421875,-61.03515625,-27.34375
1770773652.5897312,,,-6.8359375,-396.484375,-58.59375,-19.04296875
1770773652.5934684,,,-51.7578125,-643.06640625,-58.10546875,-19.53125
1770773652.5972056,,,-62.5,-1000.0,-59.08203125,-23.4375
1770773652.6009426,,,-14.6484375,-749.51171875,-62.98828125,-30.76171875
1770773652.6046798,,,3.41796875,-497.55859375,-62.01171875,-16.6015625
1770773652.608417,,,-31.25,-875.48828125,-56.640625,-7.32421875
1770773652.6121542,,,-57.12890625,-940.4296875,-56.15234375,-2.44140625
1770773652.6158915,,,-29.78515625,-583.49609375,-60.546875,-3.90625
1770773652.6196287,,,-4.8828125,-363.76953125,-63.4765625,-22.94921875
1770773652.6233656,,,-27.83203125,-691.40625,-65.4296875,-36.1328125
1770773652.6271029,,,-69.82421875,-886.71875,-64.94140625,-35.64453125
1770773652.63084,,,-34.66796875,-531.73828125,-64.94140625,-30.76171875
1770773652.6347244,,,4.8828125,-515.13671875,-60.546875,-34.1796875
1770773652.6386087,,,-7.8125,-744.62890625,-62.01171875,-47.36328125
1770773652.642493,,,-40.52734375,-691.40625,-70.3125,-28.3203125
1770773652.6463773,,,-46.38671875,-472.65625,-69.82421875,-34.66796875
1770773652.6502616,,,-2.44140625,-704.1015625,-69.3359375,-38.0859375
1770773652.6541462,,,-7.8125,-990.72265625,-65.91796875,-12.20703125
1770773652.6580305,,,-47.36328125,-1000.0,-62.98828125,-23.4375
1770773652.6619148,,,-59.08203125,-845.21484375,-62.98828125,-35.15625
1770773652.6657991,,,-29.296875,-605.46875,-64.453125,-38.57421875
1770773652.6696835,,,-14.6484375,-905.76171875,-64.453125,-36.62109375
1770773652.6735678,,,-38.0859375,-805.17578125,-61.03515625,-42.96875
1770773652.677452,,,-46.875,-392.08984375,-58.10546875,-56.15234375
1770773652.6811955,,,-20.5078125,-552.24609375,-54.6875,-29.296875
1770773652.684939,,,11.71875,-729.00390625,-58.10546875,-12.6953125
1770773652.6886823,,,12.6953125,-498.046875,-61.5234375,-11.71875
1770773652.6924257,,,-61.5234375,-420.41015625,-64.94140625,-40.0390625
1770773652.6961691,,,-74.21875,-651.3671875,-65.4296875,-54.19921875
1770773652.6999125,,,-16.6015625,-1000.0,-65.4296875,-26.3671875
1770773652.703656,,,-20.99609375,-863.28125,-64.94140625,-36.1328125
1770773652.7073994,,,-60.546875,-458.49609375,-64.94140625,-59.08203125
1770773652.7111428,,,-73.2421875,-678.7109375,-63.96484375,-64.453125
1770773652.7148862,,,-41.50390625,-1000.0,-57.12890625,-35.15625
1770773652.7186296,,,-12.20703125,-660.15625,-55.6640625,-31.73828125
1770773652.722373,,,-27.34375,-294.43359375,-58.10546875,-49.31640625
1770773652.7261295,,,-54.19921875,-686.5234375,-58.10546875,-43.45703125
1770773652.729886,,,-8.7890625,-754.39453125,-55.6640625,-14.16015625
1770773652.7336426,,,24.90234375,-356.93359375,-54.19921875,-21.484375
1770773652.737399,,,-32.2265625,-413.57421875,-59.08203125,-44.43359375
1770773652.7411556,,,-60.546875,-731.93359375,-59.5703125,-46.38671875
1770773652.744912,,,-25.87890625,-989.2578125,-57.12890625,-24.4140625
1770773652.7486684,,,6.8359375,-814.453125,-58.59375,-16.6015625
1770773652.752425,,,-5.859375,-571.77734375,-63.4765625,-35.15625
1770773652.7561815,,,-43.45703125,-889.6484375,-69.3359375,-29.78515625
1770773652.759938,,,-29.78515625,-807.12890625,-69.82421875,-28.3203125
1770773652.7636945,,,-7.32421875,-368.65234375,-66.40625,-24.4140625
1770773652.767451,,,-3.41796875,-503.90625,-64.94140625,-30.2734375
1770773652.7712324,,,-31.73828125,-815.91796875,-64.453125,-25.87890625
1770773652.7750137,,,-46.875,-843.75,-63.96484375,-23.4375
1770773652.778795,,,-15.625,-555.17578125,-53.7109375,-9.27734375
1770773652.7825763,,,-23.92578125,-619.140625,-49.31640625,2.44140625
1770773652.7863576,,,-45.8984375,-900.390625,-52.734375,-9.765625
1770773652.7901392,,,-60.05859375,-952.1484375,-57.6171875,-36.62109375
1770773652.7939205,,,-33.203125,-769.04296875,-61.03515625,-39.55078125
1770773652.7977018,,,-6.8359375,-721.19140625,-61.03515625,-20.5078125
1770773652.8014832,,,-27.83203125,-902.34375,-58.59375,-20.99609375
1770773652.8052645,,,-49.8046875,-512.6953125,-59.5703125,-27.34375
1770773652.8090458,,,-29.78515625,-339.84375,-63.96484375,-24.90234375
1770773652.812827,,,10.25390625,-655.2734375,-63.96484375,-17.578125
1770773652.817779,,,-2.9296875,-666.9921875,-58.59375,-14.16015625
1770773652.822731,,,-36.62109375,-409.1796875,-52.734375,-24.4140625
1770773652.8276832,,,-8.7890625,-463.37890625,-57.6171875,-15.625
1770773652.8326352,,,39.0625,-676.7578125,-55.6640625,3.41796875
1770773652.837587,,,21.484375,-779.78515625,-53.7109375,1.46484375
1770773652.842539,,,-27.34375,-890.13671875,-55.17578125,-26.3671875
1770773652.847491,,,-22.94921875,-953.125,-55.17578125,-38.57421875
1770773652.852443,,,9.765625,-995.1171875,-51.7578125,-13.671875
1770773652.8573952,,,10.7421875,-893.5546875,-46.38671875,-9.27734375
1770773652.8623471,,,-21.484375,-446.2890625,-55.17578125,-22.94921875
1770773652.867299,,,-53.7109375,-504.8828125,-57.12890625,-22.4609375
1770773652.872251,,,-45.41015625,-756.8359375,-54.19921875,-19.53125
1770773652.8747044,,,-6.8359375,-460.9375,-60.05859375,-25.390625
1770773652.8771577,,,-16.6015625,-268.06640625,-58.10546875,-18.06640625
1770773652.879611,,,-68.359375,-607.91015625,-54.19921875,-21.97265625
1770773652.8820643,,,-32.71484375,-779.78515625,-55.6640625,-32.2265625
1770773652.8845177,,,13.671875,-477.5390625,-56.15234375,-12.20703125
1770773652.886971,,,-8.30078125,-754.8828125,-55.17578125,-9.765625
1770773652.8894243,,,-42.48046875,-1000.0,-56.640625,-44.921875
1770773652.8918777,,,-45.41015625,-903.80859375,-60.05859375,-54.6875
1770773652.894331,,,-2.44140625,-817.3828125,-56.15234375,-37.109375
1770773652.8967843,,,10.25390625,-531.25,-56.640625,-42.48046875
1770773652.8992376,,,-36.1328125,-680.17578125,-59.08203125,-31.73828125
1770773652.901691,,,-58.10546875,-888.18359375,-57.6171875,-27.83203125
1770773652.9067004,,,-29.78515625,-515.625,-60.05859375,-24.90234375
1770773652.9117098,,,4.8828125,-453.125,-61.03515625,-14.16015625
1770773652.9167192,,,-16.11328125,-719.7265625,-64.94140625,-17.578125
1770773652.9217286,,,-55.17578125,-677.734375,-60.546875,-27.83203125
1770773652.926738,,,-13.18359375,-469.7265625,-52.734375,-32.71484375
1770773652.9317474,,,31.73828125,-795.8984375,-55.6640625,-7.8125
1770773652.9367568,,,16.11328125,-1000.0,-57.6171875,-0.9765625
1770773652.9417663,,,-29.78515625,-796.38671875,-58.10546875,-4.39453125
1770773652.9467757,,,1.953125,-416.015625,-53.22265625,-3.41796875
1770773652.951785,,,25.390625,-515.13671875,-55.6640625,9.765625
1770773652.9567945,,,11.23046875,-701.66015625,-62.01171875,10.7421875
1770773652.961804,,,-1.46484375,-713.37890625,-62.98828125,-7.32421875
1770773652.9657094,,,-12.6953125,-663.0859375,-64.453125,-7.8125
1770773652.969615,,,14.16015625,-640.625,-59.5703125,-2.44140625
1770773652.9735208,,,29.78515625,-804.6875,-64.94140625,-15.625
1770773652.9774263,,,3.90625,-488.76953125,-68.359375,-31.25
1770773652.9813318,,,-14.6484375,-371.09375,-59.08203125,-33.203125
1770773652.9852376,,,-10.25390625,-813.4765625,-60.546875,-19.53125
1770773652.9891431,,,-11.23046875,-889.6484375,-56.640625,-20.01953125
1770773652.9930487,,,-3.90625,-487.79296875,-53.7109375,-22.94921875
1770773652.9969542,,,-28.80859375,-342.28515625,-60.546875,-22.94921875
1770773653.0008597,,,-27.34375,-665.0390625,-56.640625,-2.44140625
1770773653.0047655,,,3.90625,-720.703125,-52.24609375,-12.20703125
1770773653.008671,,,-4.39453125,-346.6796875,-55.6640625,-44.921875
1770773653.0123649,,,-34.1796875,-398.4375,-57.6171875,-23.4375
1770773653.0160587,,,-9.765625,-692.87109375,-58.10546875,-17.08984375
1770773653.0197525,,,26.85546875,-633.7890625,-59.5703125,-29.296875
1770773653.0234463,,,12.20703125,-636.71875,-61.03515625,-10.7421875
1770773653.0271401,,,-37.59765625,-686.5234375,-57.12890625,-26.3671875
1770773653.0308342,,,-48.33984375,-856.4453125,-54.19921875,-41.9921875
1770773653.034528,,,-0.48828125,-919.921875,-56.640625,-31.25
1770773653.0382218,,,16.11328125,-520.99609375,-53.7109375,-28.80859375
1770773653.0419157,,,-15.625,-455.078125,-47.36328125,-24.4140625
1770773653.0456095,,,-40.0390625,-878.41796875,-45.41015625,-19.04296875
1770773653.0493033,,,-12.6953125,-826.66015625,-40.52734375,-5.859375
1770773653.052997,,,15.625,-315.4296875,-40.0390625,-2.9296875
1770773653.0566587,,,3.41796875,-522.94921875,-42.48046875,-23.92578125
1770773653.0603204,,,-30.2734375,-787.59765625,-44.43359375,-20.5078125
1770773653.0639818,,,-29.78515625,-459.47265625,-48.33984375,-9.27734375
1770773653.0676434,,,18.5546875,-274.90234375,-49.31640625,-5.859375
1770773653.071305,,,17.08984375,-607.91015625,-47.8515625,-5.37109375
1770773653.0749664,,,-40.52734375,-1000.0,-49.31640625,-24.90234375
1770773653.078628,,,-36.62109375,-999.51171875,-58.10546875,-22.4609375
1770773653.0822897,,,3.41796875,-723.6328125,-58.10546875,-30.76171875
1770773653.0859513,,,1.953125,-702.1484375,-53.22265625,-37.109375
1770773653.089613,,,-31.73828125,-1000.0,-55.6640625,-26.85546875
1770773653.0932744,,,-45.41015625,-616.69921875,-61.03515625,-25.390625
1770773653.096936,,,-4.8828125,-277.34375,-64.94140625,-20.01953125
1770773653.1006837,,,13.18359375,-647.4609375,-65.91796875,-20.5078125
1770773653.1044312,,,-25.390625,-669.921875,-59.5703125,-26.85546875
1770773653.1081786,,,-59.08203125,-308.59375,-57.12890625,-35.15625
1770773653.1119263,,,-33.203125,-352.05078125,-59.08203125,-35.15625
1770773653.115674,,,-4.39453125,-635.7421875,-58.10546875,-27.83203125
1770773653.1194215,,,-8.30078125,-883.30078125,-47.8515625,-37.59765625
1770773653.123169,,,-49.8046875,-847.65625,-45.8984375,-43.45703125
1770773653.1269166,,,-40.52734375,-580.56640625,-55.17578125,-30.2734375
1770773653.1306643,,,-9.27734375,-848.14453125,-51.26953125,-7.8125
1770773653.1344118,,,-13.18359375,-736.328125,-47.8515625,-6.34765625
1770773653.1381593,,,-51.26953125,-429.6875,-53.22265625,-37.59765625
1770773653.141907,,,-63.96484375,-802.24609375,-55.17578125,-41.015625
1770773653.1468668,,,-13.671875,-813.96484375,-49.8046875,-5.859375
1770773653.1518266,,,4.39453125,-415.0390625,-51.26953125,-19.04296875
1770773653.1567864,,,-24.4140625,-226.5625,-59.08203125,-48.33984375
1770773653.1617463,,,-62.98828125,-550.78125,-64.94140625,-38.0859375
1770773653.166706,,,-38.0859375,-718.26171875,-66.89453125,-16.6015625
1770773653.171666,,,-15.13671875,-645.01953125,-67.3828125,-16.6015625
1770773653.176626,,,-37.109375,-762.20703125,-66.89453125,-35.15625
1770773653.1815858,,,-69.3359375,-907.71484375,-68.359375,-47.36328125
1770773653.1865456,,,-38.57421875,-881.8359375,-70.80078125,-40.52734375
1770773653.1915054,,,14.6484375,-457.51953125,-66.40625,-15.625
1770773653.1964653,,,-10.25390625,-222.16796875,-61.03515625,-23.92578125
1770773653.201425,,,-83.0078125,-639.16015625,-61.5234375,-47.8515625
1770773653.2040312,,,-66.40625,-691.89453125,-64.94140625,-44.43359375
1770773653.2066371,,,-8.7890625,-328.125,-67.87109375,-41.015625
1770773653.2092433,,,3.90625,-568.359375,-65.91796875,-19.53125
1770773653.2118495,,,-44.921875,-818.84765625,-58.59375,-33.203125
1770773653.2144554,,,-67.3828125,-608.88671875,-58.59375,-45.41015625
1770773653.2170615,,,-7.8125,-594.7265625,-61.5234375,-20.99609375
1770773653.2196677,,,0.0,-839.84375,-62.5,-24.4140625
1770773653.2222736,,,-29.296875,-939.453125,-61.5234375,-12.6953125
1770773653.2248797,,,-52.734375,-677.734375,-69.82421875,-38.0859375
1770773653.227486,,,-15.13671875,-226.5625,-77.1484375,-50.29296875
1770773653.2300918,,,14.16015625,-344.23828125,-73.73046875,-13.18359375
1770773653.232698,,,-31.25,-782.2265625,-75.1953125,-20.99609375
1770773653.2364285,,,-66.40625,-613.76953125,-79.58984375,-47.36328125
1770773653.240159,,,-37.109375,-226.07421875,-78.125,-38.57421875
1770773653.2438898,,,-6.34765625,-497.0703125,-73.2421875,-12.20703125
1770773653.2476203,,,-13.18359375,-693.359375,-68.359375,-16.11328125
1770773653.2513509,,,-38.57421875,-425.78125,-67.3828125,-32.2265625
1770773653.2550817,,,-27.34375,-595.703125,-70.3125,-31.25
1770773653.2588122,,,12.20703125,-861.328125,-76.66015625,-24.90234375
1770773653.2625427,,,13.671875,-1000.0,-78.61328125,-20.99609375
1770773653.2662733,,,-32.71484375,-627.44140625,-73.73046875,-47.36328125
1770773653.2700038,,,-52.24609375,-276.3671875,-75.1953125,-49.31640625
1770773653.2737346,,,7.8125,-610.3515625,-73.73046875,-35.64453125
1770773653.277465,,,17.578125,-619.62890625,-66.89453125,-32.71484375
1770773653.2822843,,,-9.765625,-325.1953125,-66.40625,-20.01953125
1770773653.2871032,,,-32.2265625,-354.00390625,-69.3359375,-25.390625
1770773653.2919223,,,-4.39453125,-629.39453125,-70.80078125,-24.90234375
1770773653.2967415,,,18.06640625,-609.86328125,-73.73046875,-4.39453125
1770773653.3015604,,,-12.20703125,-427.734375,-69.82421875,-31.25
1770773653.3063796,,,-45.8984375,-763.18359375,-66.89453125,-46.38671875
1770773653.3111987,,,-21.97265625,-1000.0,-65.91796875,-24.4140625
1770773653.3160176,,,-4.39453125,-734.86328125,-67.3828125,-14.6484375
1770773653.3208368,,,-22.94921875,-351.5625,-71.2890625,-26.85546875
1770773653.325656,,,-73.2421875,-692.3828125,-70.3125,-34.66796875
1770773653.3304749,,,-75.1953125,-898.92578125,-67.3828125,-18.06640625
1770773653.335294,,,-22.4609375,-538.0859375,-68.359375,-9.765625
1770773653.3390877,,,-13.18359375,-281.73828125,-64.94140625,-19.53125
1770773653.3428812,,,-62.01171875,-559.08203125,-62.01171875,-38.0859375
1770773653.346675,,,-94.7265625,-762.20703125,-64.94140625,-64.453125
1770773653.3504686,,,-66.40625,-446.2890625,-69.3359375,-50.29296875
1770773653.3542624,,,-42.48046875,-415.0390625,-72.75390625,-36.1328125
1770773653.358056,,,-47.36328125,-826.66015625,-72.265625,-40.0390625
1770773653.3618495,,,-76.66015625,-913.57421875,-71.2890625,-48.33984375
1770773653.3656433,,,-32.71484375,-500.9765625,-71.2890625,-50.78125
1770773653.369437,,,2.44140625,-309.5703125,-70.3125,-38.0859375
1770773653.3732305,,,-19.53125,-668.9453125,-73.73046875,-29.78515625
1770773653.3770242,,,-52.734375,-779.296875,-74.70703125,-43.45703125
1770773653.380818,,,-47.36328125,-420.8984375,-70.80078125,-33.203125
1770773653.3847008,,,-18.06640625,-594.23828125,-69.82421875,-36.62109375
1770773653.388584,,,-23.4375,-953.125,-72.75390625,-48.33984375
1770773653.392467,,,-46.38671875,-768.06640625,-67.87109375,-32.2265625
1770773653.39635,,,-47.36328125,-398.92578125,-64.453125,-29.296875
1770773653.4002328,,,-26.85546875,-461.9140625,-68.359375,-21.484375
1770773653.404116,,,-36.62109375,-902.83203125,-69.3359375,-21.97265625
1770773653.407999,,,-46.875,-946.77734375,-68.359375,-37.109375
1770773653.411882,,,-53.22265625,-536.62109375,-72.265625,-54.19921875
1770773653.4157648,,,-35.64453125,-495.1171875,-68.84765625,-27.34375
1770773653.419648,,,-17.578125,-847.65625,-66.89453125,-18.5546875
1770773653.423531,,,-18.06640625,-707.51953125,-68.359375,-34.66796875
1770773653.427414,,,-37.59765625,-361.81640625,-67.3828125,-51.7578125
1770773653.432287,,,-27.34375,-580.078125,-70.3125,-42.48046875
1770773653.43716,,,7.32421875,-778.80859375,-71.77734375,-27.34375
1770773653.4420333,,,8.30078125,-457.03125,-74.70703125,-14.6484375
1770773653.4469063,,,-17.578125,-384.765625,-72.265625,-15.625
1770773653.4517794,,,-25.390625,-761.23046875,-71.77734375,-28.3203125
1770773653.4566526,,,-0.48828125,-1000.0,-68.84765625,-24.90234375
1770773653.4615257,,,-9.765625,-860.83984375,-66.40625,-29.296875
1770773653.4663987,,,-50.29296875,-456.54296875,-64.94140625,-30.76171875
1770773653.4712718,,,-66.40625,-682.6171875,-62.5,-40.0390625
1770773653.4761448,,,-44.921875,-920.41015625,-60.546875,-34.1796875
1770773653.481018,,,-12.6953125,-501.46484375,-59.5703125,-19.04296875
1770773653.485891,,,-35.64453125,-377.44140625,-58.59375,-38.0859375
1770773653.4884799,,,-62.98828125,-712.890625,-65.4296875,-62.01171875
1770773653.4910684,,,-26.3671875,-750.9765625,-65.4296875,-30.2734375
1770773653.493657,,,-5.859375,-475.5859375,-56.640625,-9.765625
1770773653.4962456,,,-31.25,-462.890625,-54.19921875,-26.85546875
1770773653.4988344,,,-57.12890625,-756.34765625,-55.17578125,-53.22265625
1770773653.5014231,,,-30.2734375,-1000.0,-57.12890625,-44.43359375
1770773653.5040116,,,15.13671875,-838.8671875,-57.6171875,-38.0859375
1770773653.5066004,,,16.11328125,-602.5390625,-57.6171875,-44.43359375
1770773653.509189,,,-22.4609375,-892.08984375,-56.15234375,-27.34375
1770773653.5117776,,,-21.484375,-744.140625,-53.7109375,-26.85546875
1770773653.5143661,,,23.4375,-311.03515625,-56.15234375,-36.1328125
1770773653.516955,,,28.3203125,-513.18359375,-53.7109375,-27.83203125
1770773653.5207038,,,-5.859375,-858.3984375,-49.31640625,-26.85546875
1770773653.5244527,,,-10.25390625,-583.984375,-53.7109375,-31.73828125
1770773653.5282016,,,19.53125,-294.43359375,-54.19921875,-15.13671875
1770773653.5319507,,,20.5078125,-585.44921875,-48.33984375,-21.97265625
1770773653.5356996,,,8.30078125,-776.85546875,-51.26953125,-31.25
1770773653.5394485,,,-17.578125,-834.47265625,-50.29296875,-22.94921875
1770773653.5431974,,,6.34765625,-732.421875,-50.78125,-14.16015625
1770773653.5469463,,,41.50390625,-714.35546875,-51.26953125,0.9765625
1770773653.5506952,,,7.8125,-899.90234375,-47.8515625,-7.32421875
1770773653.5544443,,,-34.66796875,-547.8515625,-54.19921875,-43.45703125
1770773653.5581932,,,-24.90234375,-356.93359375,-56.15234375,-43.45703125
1770773653.561942,,,14.16015625,-711.9140625,-57.6171875,-24.4140625
1770773653.5657735,,,18.06640625,-770.99609375,-57.6171875,-28.80859375
1770773653.569605,,,-33.203125,-426.7578125,-55.6640625,-31.25
1770773653.5734365,,,-23.92578125,-438.4765625,-54.19921875,-26.85546875
1770773653.5772681,,,15.13671875,-705.56640625,-50.29296875,-28.3203125
1770773653.5810995,,,-7.32421875,-713.8671875,-53.22265625,-18.5546875
1770773653.584931,,,-34.1796875,-762.6953125,-57.12890625,-11.71875
1770773653.5887625,,,-23.4375,-875.48828125,-58.10546875,-19.53125
1770773653.592594,,,4.8828125,-930.17578125,-58.59375,-17.08984375
1770773653.5964255,,,15.13671875,-783.203125,-62.01171875,-29.78515625
1770773653.600257,,,-0.9765625,-322.75390625,-62.98828125,-30.2734375
1770773653.6040885,,,-47.36328125,-458.49609375,-60.546875,-28.3203125
1770773653.60792,,,-20.99609375,-644.04296875,-66.89453125,-27.83203125
1770773653.611656,,,13.671875,-376.953125,-65.91796875,-22.94921875
1770773653.6153922,,,7.32421875,-231.4453125,-61.03515625,-26.85546875
1770773653.6191282,,,-12.6953125,-562.98828125,-66.89453125,-41.50390625
1770773653.6228642,,,-21.484375,-833.49609375,-70.80078125,-19.53125
1770773653.6266005,,,6.34765625,-523.4375,-67.3828125,4.39453125
1770773653.6303365,,,20.99609375,-650.390625,-68.359375,-24.4140625
1770773653.6340725,,,-21.484375,-921.38671875,-68.359375,-28.80859375
1770773653.6378088,,,-52.24609375,-1000.0,-65.91796875,-15.625
1770773653.6415448,,,-21.484375,-662.109375,-67.87109375,-13.671875
1770773653.6452808,,,-14.6484375,-245.1171875,-70.3125,-32.71484375
1770773653.649017,,,-44.921875,-573.73046875,-68.359375,-43.45703125
1770773653.652753,,,-49.8046875,-628.90625,-65.91796875,-31.73828125
1770773653.6575844,,,-37.109375,-360.3515625,-62.5,-30.2734375
1770773653.6624157,,,-27.34375,-400.87890625,-61.03515625,-14.6484375
1770773653.667247,,,-28.80859375,-625.48828125,-62.5,-12.6953125
1770773653.6720784,,,-59.08203125,-552.734375,-62.01171875,-41.015625
1770773653.6769097,,,-29.78515625,-374.51171875,-61.5234375,-19.53125
1770773653.681741,,,-10.25390625,-738.76953125,-64.94140625,-11.71875
1770773653.6865723,,,-35.64453125,-1000.0,-63.96484375,-20.5078125
1770773653.6914036,,,-35.15625,-832.51953125,-61.5234375,-28.80859375
1770773653.696235,,,-25.390625,-327.63671875,-66.89453125,-41.015625
1770773653.7010663,,,-10.7421875,-308.59375,-64.94140625,-40.52734375
1770773653.7058976,,,-0.48828125,-783.203125,-59.08203125,-21.97265625
1770773653.710729,,,-18.5546875,-702.63671875,-62.5,-23.92578125
1770773653.714564,,,-23.4375,-294.921875,-65.91796875,-38.0859375
1770773653.718399,,,-19.04296875,-519.04296875,-66.40625,-40.0390625
1770773653.7222342,,,-10.7421875,-762.20703125,-73.2421875,-15.13671875
1770773653.7260692,,,-20.5078125,-445.3125,-74.70703125,-17.578125
1770773653.7299044,,,-39.0625,-456.54296875,-70.80078125,-29.296875
1770773653.7337396,,,-17.08984375,-876.953125,-68.359375,-6.8359375
1770773653.7375746,,,2.44140625,-894.04296875,-69.3359375,-6.8359375
1770773653.7414098,,,-14.6484375,-505.859375,-73.2421875,-22.4609375
1770773653.7452447,,,-44.43359375,-377.9296875,-69.82421875,-31.25
1770773653.74908,,,-31.73828125,-708.49609375,-67.87109375,-33.69140625
1770773653.752915,,,-13.671875,-971.19140625,-64.453125,-20.99609375
1770773653.75675,,,-13.18359375,-600.5859375,-69.82421875,-25.390625
1770773653.7616909,,,-40.52734375,-344.23828125,-72.265625,-42.48046875
1770773653.7666316,,,-42.48046875,-704.58984375,-71.77734375,-35.15625
1770773653.7715724,,,-13.671875,-770.99609375,-71.2890625,-20.99609375
1770773653.776513,,,13.18359375,-384.765625,-70.80078125,-22.94921875
1770773653.7814538,,,2.9296875,-387.6953125,-73.2421875,-38.57421875
1770773653.7863946,,,-16.6015625,-802.734375,-67.3828125,-28.3203125
1770773653.7913353,,,15.13671875,-875.0,-64.453125,6.8359375
1770773653.796276,,,29.78515625,-492.67578125,-71.2890625,0.48828125
1770773653.8012168,,,-26.85546875,-500.48828125,-67.87109375,-33.203125
1770773653.8061576,,,-74.70703125,-839.35546875,-68.84765625,-55.6640625
1770773653.8110983,,,-45.8984375,-698.2421875,-72.265625,-42.96875
1770773653.816039,,,-25.390625,-350.09765625,-71.2890625,-46.38671875
1770773653.8187008,,,-42.96875,-545.41015625,-70.80078125,-57.12890625
1770773653.8213625,,,-69.82421875,-969.7265625,-66.40625,-41.015625
1770773653.8240242,,,-57.6171875,-866.69921875,-67.3828125,-47.8515625
1770773653.8266857,,,-21.97265625,-451.171875,-65.4296875,-34.1796875
1770773653.8293474,,,-8.30078125,-596.6796875,-61.5234375,-15.13671875
1770773653.832009,,,-46.38671875,-1000.0,-62.98828125,-35.15625
1770773653.8346708,,,-52.24609375,-885.7421875,-67.3828125,-45.41015625
1770773653.8373325,,,-5.859375,-426.7578125,-62.01171875,-20.99609375
1770773653.8399942,,,4.39453125,-664.55078125,-58.10546875,-12.20703125
1770773653.8426557,,,-31.25,-841.30859375,-60.546875,-26.85546875
1770773653.8453174,,,-42.96875,-407.2265625,-65.4296875,-40.52734375
1770773653.847979,,,-1.46484375,-318.359375,-68.84765625,-41.9921875
1770773653.8528235,,,20.99609375,-720.703125,-65.4296875,-22.4609375
1770773653.857668,,,4.8828125,-781.73828125,-64.453125,-36.62109375
1770773653.8625124,,,-3.41796875,-394.53125,-67.3828125,-55.6640625
1770773653.8673568,,,35.15625,-354.00390625,-66.89453125,-28.80859375
1770773653.8722012,,,39.0625,-670.8984375,-69.3359375,-32.71484375
1770773653.8770456,,,21.484375,-888.18359375,-65.4296875,-11.71875
1770773653.8818898,,,-7.8125,-891.11328125,-60.05859375,-17.08984375
1770773653.8867342,,,-22.4609375,-911.62109375,-62.98828125,-28.3203125
1770773653.8915787,,,2.44140625,-976.5625,-63.4765625,2.9296875
1770773653.896423,,,4.8828125,-876.953125,-62.01171875,-5.37109375
1770773653.9012675,,,-24.90234375,-380.859375,-64.94140625,-34.66796875
1770773653.906112,,,-46.38671875,-402.34375,-66.40625,-28.80859375
1770773653.9087255,,,-16.11328125,-651.85546875,-66.40625,-16.6015625
1770773653.911339,,,3.41796875,-431.15234375,-68.359375,-12.6953125
1770773653.9139526,,,-23.92578125,-287.59765625,-68.84765625,-9.27734375
1770773653.9165664,,,-42.96875,-566.89453125,-69.3359375,-16.6015625
1770773653.91918,,,-13.671875,-878.90625,-72.75390625,-1.953125
1770773653.9217935,,,15.13671875,-880.37109375,-71.2890625,8.7890625
1770773653.924407,,,6.34765625,-654.296875,-69.82421875,5.859375
1770773653.9270205,,,-20.5078125,-645.5078125,-63.96484375,9.27734375
1770773653.929634,,,-15.625,-938.96484375,-61.03515625,-4.8828125
1770773653.9322479,,,21.97265625,-701.171875,-62.5,-11.71875
1770773653.9348614,,,18.06640625,-312.98828125,-61.03515625,1.953125
1770773653.937475,,,-27.34375,-637.20703125,-59.08203125,7.8125
1770773653.9422889,,,-31.25,-936.03515625,-60.05859375,-8.30078125
1770773653.947103,,,11.23046875,-415.52734375,-63.96484375,-3.41796875
1770773653.951917,,,17.08984375,-214.84375,-62.01171875,5.859375
1770773653.956731,,,-23.4375,-506.34765625,-66.40625,-20.5078125
1770773653.961545,,,-43.45703125,-547.36328125,-66.40625,-23.4375
1770773653.9663591,,,-5.859375,-644.53125,-65.4296875,-18.06640625
1770773653.971173,,,14.16015625,-769.04296875,-68.84765625,-21.97265625
1770773653.975987,,,-5.37109375,-887.20703125,-63.96484375,-3.90625
1770773653.980801,,,-19.53125,-733.88671875,-62.98828125,-10.7421875
1770773653.985615,,,5.859375,-220.703125,-62.5,-20.01953125
1770773653.9904292,,,16.6015625,-289.55078125,-57.6171875,-6.34765625
1770773653.995243,,,-1.46484375,-530.76171875,-58.10546875,4.8828125
1770773653.9979637,,,-22.94921875,-619.62890625,-57.12890625,-9.27734375
1770773654.0006843,,,-16.6015625,-463.37890625,-63.4765625,-39.55078125
1770773654.0034049,,,-0.9765625,-528.3203125,-68.84765625,-24.4140625
1770773654.0061255,,,-2.44140625,-790.0390625,-64.453125,-17.578125
1770773654.008846,,,-25.87890625,-493.1640625,-66.40625,-23.4375
1770773654.0115664,,,-23.92578125,-648.92578125,-67.3828125,-22.94921875
1770773654.014287,,,-2.44140625,-979.00390625,-68.359375,-7.32421875
1770773654.0170076,,,12.6953125,-859.86328125,-66.40625,5.37109375
1770773654.0197282,,,-2.9296875,-455.56640625,-69.3359375,-27.34375
1770773654.0224488,,,-30.2734375,-334.9609375,-70.3125,-3.41796875
1770773654.0251694,,,-5.859375,-703.61328125,-70.3125,15.625
1770773654.02789,,,8.7890625,-694.82421875,-71.77734375,-20.99609375
1770773654.0329134,,,-26.3671875,-331.54296875,-66.89453125,-39.55078125
1770773654.0379367,,,-55.6640625,-360.3515625,-66.40625,-42.96875
1770773654.0429602,,,-28.80859375,-605.46875,-65.4296875,-31.25
1770773654.0479836,,,20.99609375,-697.265625,-64.94140625,-11.71875
1770773654.0530071,,,-0.48828125,-674.8046875,-66.89453125,-17.578125
1770773654.0580306,,,-60.546875,-779.78515625,-69.3359375,-35.15625
1770773654.0630538,,,-38.0859375,-978.02734375,-73.2421875,-19.04296875
1770773654.0680773,,,1.46484375,-858.88671875,-75.1953125,-7.32421875
1770773654.0731008,,,-5.859375,-352.05078125,-72.265625,-20.99609375
1770773654.078124,,,-44.921875,-343.26171875,-68.359375,-20.99609375
1770773654.0831475,,,-40.0390625,-573.73046875,-66.40625,-20.5078125
1770773654.088171,,,3.41796875,-379.39453125,-69.3359375,-19.04296875
1770773654.09191,,,-0.48828125,-223.14453125,-69.82421875,-12.20703125
1770773654.0956488,,,-27.83203125,-509.27734375,-64.94140625,-21.97265625
1770773654.0993876,,,-32.71484375,-722.65625,-63.4765625,-33.69140625
1770773654.1031263,,,-22.94921875,-408.203125,-66.40625,-22.94921875
1770773654.1068652,,,-9.765625,-324.70703125,-66.89453125,-28.80859375
1770773654.110604,,,-16.11328125,-743.1640625,-64.453125,-34.66796875
1770773654.114343,,,-53.22265625,-884.27734375,-62.5,-19.04296875
1770773654.1180818,,,-37.109375,-694.3359375,-59.5703125,-1.46484375
1770773654.1218207,,,3.90625,-504.39453125,-57.12890625,18.5546875
1770773654.1255593,,,-20.99609375,-601.5625,-58.10546875,-3.41796875
1770773654.1292982,,,-62.01171875,-924.8046875,-61.03515625,-31.73828125
1770773654.133037,,,-39.55078125,-475.09765625,-59.08203125,-19.53125
1770773654.136694,,,-6.34765625,-224.609375,-56.15234375,-13.18359375
1770773654.1403506,,,-5.859375,-546.875,-59.5703125,-25.87890625
1770773654.1440072,,,-33.203125,-597.65625,-61.03515625,-20.99609375
1770773654.147664,,,-38.0859375,-337.890625,-57.12890625,-18.5546875
1770773654.151321,,,-11.23046875,-343.26171875,-58.59375,-1.46484375
1770773654.1549776,,,-5.859375,-719.23828125,-61.5234375,-4.8828125
1770773654.1586342,,,-29.296875,-911.1328125,-64.453125,-17.578125
1770773654.162291,,,-55.17578125,-511.23046875,-65.91796875,-20.5078125
1770773654.165948,,,-35.64453125,-377.9296875,-68.359375,-13.671875
1770773654.1696045,,,-18.06640625,-766.6015625,-67.3828125,-1.46484375
1770773654.1732612,,,-23.4375,-661.62109375,-63.4765625,4.39453125
1770773654.176918,,,-40.52734375,-552.734375,-67.3828125,-13.671875
1770773654.1807406,,,-35.64453125,-718.26171875,-72.75390625,-32.2265625
1770773654.1845634,,,-6.8359375,-757.32421875,-70.80078125,-25.87890625
1770773654.188386,,,-12.6953125,-511.71875,-72.265625,-20.99609375
1770773654.1922088,,,-33.69140625,-307.6171875,-72.75390625,-46.875
1770773654.1960313,,,-32.2265625,-577.63671875,-71.77734375,-43.9453125
1770773654.199854,,,0.48828125,-972.65625,-73.73046875,-10.25390625
1770773654.2036767,,,5.859375,-777.83203125,-71.2890625,-34.1796875
1770773654.2074993,,,-40.0390625,-322.265625,-71.2890625,-58.59375
1770773654.211322,,,-44.43359375,-597.16796875,-68.84765625,-23.92578125
1770773654.2151446,,,-11.23046875,-903.80859375,-69.3359375,4.39453125
1770773654.2189674,,,3.90625,-447.265625,-73.2421875,1.46484375
1770773654.22279,,,-21.97265625,-260.7421875,-64.94140625,-14.16015625
1770773654.226477,,,-51.7578125,-614.2578125,-63.4765625,-31.25
1770773654.230164,,,-16.6015625,-541.50390625,-62.5,-7.8125
1770773654.233851,,,10.25390625,-421.38671875,-57.12890625,8.30078125
1770773654.237538,,,-9.27734375,-583.49609375,-60.546875,-6.8359375
1770773654.241225,,,-27.83203125,-652.34375,-64.453125,-24.90234375
1770773654.244912,,,-24.4140625,-885.25390625,-68.359375,-31.25
1770773654.248599,,,-19.04296875,-772.94921875,-68.84765625,-33.69140625
1770773654.252286,,,-7.32421875,-454.58984375,-67.3828125,-45.8984375
1770773654.255973,,,-18.5546875,-763.18359375,-72.75390625,-42.96875
1770773654.25966,,,-38.0859375,-894.04296875,-76.66015625,-24.4140625
1770773654.2633471,,,4.39453125,-275.87890625,-68.84765625,-30.2734375
1770773654.267034,,,7.32421875,-324.70703125,-72.265625,-25.390625
1770773654.2707648,,,-26.85546875,-626.953125,-79.1015625,-13.671875
1770773654.2744956,,,-37.109375,-367.67578125,-77.1484375,-24.90234375
1770773654.2782264,,,4.8828125,-170.8984375,-76.66015625,-9.27734375
1770773654.2819571,,,25.390625,-450.68359375,-72.265625,2.44140625
1770773654.285688,,,-7.32421875,-733.88671875,-70.80078125,-9.765625
1770773654.2894185,,,-41.015625,-750.48828125,-75.68359375,-15.13671875
1770773654.2931492,,,-14.16015625,-824.70703125,-79.58984375,-19.53125
1770773654.29688,,,4.39453125,-894.04296875,-80.078125,-9.27734375
1770773654.3006108,,,-19.04296875,-1000.0,-84.9609375,-4.39453125
1770773654.3043416,,,-32.71484375,-635.25390625,-86.42578125,-22.4609375
1770773654.3080723,,,-19.04296875,-229.00390625,-82.51953125,-27.34375
1770773654.311803,,,-10.25390625,-537.109375,-79.1015625,-16.6015625
1770773654.3167446,,,-0.9765625,-555.17578125,-80.078125,-24.90234375
1770773654.321686,,,-23.4375,-248.53515625,-81.54296875,-44.43359375
1770773654.3266275,,,-26.3671875,-309.5703125,-80.56640625,-41.9921875
1770773654.331569,,,2.44140625,-575.1953125,-80.56640625,-27.83203125
1770773654.3365104,,,-18.5546875,-658.203125,-84.47265625,-37.59765625
1770773654.341452,,,-48.828125,-746.09375,-88.37890625,-56.640625
1770773654.3463936,,,-42.96875,-811.5234375,-90.33203125,-46.38671875
1770773654.351335,,,-5.859375,-923.828125,-88.8671875,-18.5546875
1770773654.3562765,,,20.99609375,-712.40234375,-86.9140625,-27.34375
1770773654.361218,,,1.953125,-375.48828125,-89.84375,-41.9921875
1770773654.3661594,,,-46.875,-661.62109375,-89.35546875,-34.66796875
1770773654.371101,,,-0.9765625,-782.2265625,-83.984375,-25.87890625
1770773654.3748074,,,28.3203125,-426.7578125,-82.51953125,-10.25390625
1770773654.3785138,,,6.34765625,-135.7421875,-78.125,-13.671875
1770773654.3822205,,,-5.859375,-469.7265625,-76.66015625,-21.484375
1770773654.385927,,,-24.4140625,-676.26953125,-78.61328125,-10.7421875
1770773654.3896334,,,3.41796875,-391.11328125,-79.58984375,-19.53125
1770773654.39334,,,7.32421875,-585.9375,-81.0546875,-24.90234375
1770773654.3970466,,,-29.296875,-915.52734375,-77.63671875,-30.76171875
1770773654.400753,,,-54.6875,-853.515625,-80.078125,-33.69140625
1770773654.4044595,,,-27.83203125,-417.48046875,-82.03125,-19.04296875
1770773654.408166,,,-1.953125,-168.9453125,-77.63671875,-4.8828125
1770773654.4118726,,,-49.8046875,-571.2890625,-81.54296875,-11.23046875
1770773654.415579,,,-67.87109375,-721.19140625,-85.44921875,-38.57421875
1770773654.4193444,,,-20.5078125,-296.38671875,-85.44921875,-42.48046875
1770773654.4231098,,,8.7890625,-492.1875,-90.33203125,-28.3203125
1770773654.426875,,,9.27734375,-909.1796875,-90.33203125,-16.6015625
1770773654.4306405,,,-21.97265625,-637.6953125,-90.33203125,-17.578125
1770773654.4344058,,,-34.1796875,-295.8984375,-89.35546875,-55.6640625
1770773654.438171,,,-31.73828125,-630.859375,-89.84375,-82.51953125
1770773654.4419363,,,-50.29296875,-976.5625,-86.9140625,-59.08203125
1770773654.4457016,,,-73.73046875,-728.02734375,-88.37890625,-58.10546875
1770773654.449467,,,-81.0546875,-257.8125,-89.84375,-71.77734375
1770773654.4532323,,,-52.734375,-328.61328125,-83.0078125,-69.3359375
1770773654.4569976,,,-63.4765625,-738.28125,-82.51953125,-79.1015625
1770773654.460763,,,-97.65625,-584.47265625,-84.9609375,-78.125
1770773654.464537,,,-98.6328125,-249.0234375,-84.47265625,-79.1015625
1770773654.4683108,,,-68.359375,-516.6015625,-86.9140625,-60.05859375
1770773654.4720848,,,-51.7578125,-742.1875,-86.42578125,-41.50390625
1770773654.4758587,,,-79.1015625,-458.49609375,-79.1015625,-64.94140625
1770773654.4796326,,,-77.1484375,-435.546875,-81.0546875,-50.29296875
1770773654.4834065,,,-55.17578125,-791.50390625,-88.37890625,-42.48046875
1770773654.4871805,,,-34.66796875,-1000.0,-86.42578125,-49.31640625
1770773654.4909544,,,-26.3671875,-814.94140625,-79.58984375,-53.7109375
1770773654.4947283,,,-47.36328125,-399.4140625,-73.2421875,-41.015625
1770773654.4985023,,,-55.17578125,-684.5703125,-71.2890625,-20.99609375
1770773654.5022762,,,-24.4140625,-864.2578125,-67.87109375,-25.390625
1770773654.50605,,,-13.18359375,-398.92578125,-73.2421875,-31.25
1770773654.5099177,,,-65.91796875,-269.53125,-76.171875,-46.38671875
1770773654.5137854,,,-55.17578125,-590.8203125,-70.80078125,-52.24609375
1770773654.5176528,,,-28.80859375,-620.1171875,-70.3125,-23.92578125
1770773654.5215204,,,-41.015625,-320.80078125,-66.89453125,-13.18359375
1770773654.525388,,,-60.05859375,-354.4921875,-66.40625,-35.15625
1770773654.5292554,,,-78.61328125,-801.7578125,-68.84765625,-55.17578125
1770773654.533123,,,-53.22265625,-843.26171875,-71.2890625,-50.78125
1770773654.5369906,,,-23.92578125,-397.94921875,-70.3125,-40.0390625
1770773654.5408583,,,-45.41015625,-521.97265625,-64.453125,-37.109375
1770773654.544726,,,-65.91796875,-946.77734375,-58.59375,-37.109375
1770773654.5485933,,,-28.3203125,-924.8046875,-57.6171875,-20.5078125
1770773654.552461,,,12.6953125,-412.59765625,-57.6171875,-23.4375
1770773654.5563881,,,-9.765625,-441.89453125,-57.12890625,-41.9921875
1770773654.5603151,,,-62.5,-746.58203125,-61.5234375,-49.8046875
1770773654.5642424,,,-50.78125,-500.48828125,-59.5703125,-52.734375
1770773654.5681696,,,-15.625,-311.5234375,-58.59375,-51.26953125
1770773654.5720968,,,-12.20703125,-515.625,-61.03515625,-31.25
1770773654.576024,,,-51.26953125,-999.0234375,-57.12890625,-24.4140625
1770773654.579951,,,-47.36328125,-881.34765625,-57.6171875,-34.66796875
1770773654.5838783,,,5.37109375,-413.57421875,-62.01171875,-30.76171875
1770773654.5878055,,,-15.625,-643.5546875,-64.453125,-25.390625
1770773654.5917325,,,-35.15625,-937.98828125,-68.359375,-8.7890625
1770773654.5956597,,,-1.953125,-518.5546875,-68.359375,7.8125
1770773654.599587,,,16.11328125,-322.265625,-60.05859375,-0.48828125
1770773654.6032517,,,-25.390625,-771.97265625,-61.5234375,-34.1796875
1770773654.6069167,,,-36.62109375,-770.99609375,-67.87109375,-45.8984375
1770773654.6105814,,,-23.4375,-354.98046875,-60.546875,-26.85546875
1770773654.6142464,,,14.6484375,-370.1171875,-62.01171875,-11.23046875
1770773654.617911,,,42.96875,-644.04296875,-67.3828125,9.765625
1770773654.6215758,,,23.92578125,-863.76953125,-69.3359375,20.99609375
1770773654.6252408,,,-12.20703125,-742.1875,-72.75390625,-9.765625
1770773654.6289055,,,-2.44140625,-470.21484375,-62.5,-2.9296875
1770773654.6325705,,,44.43359375,-768.5546875,-63.4765625,18.5546875
1770773654.6362352,,,33.203125,-779.78515625,-73.73046875,16.6015625
1770773654.6399002,,,2.9296875,-283.69140625,-71.2890625,14.6484375
1770773654.643565,,,7.32421875,-420.8984375,-65.91796875,4.39453125
1770773654.649585,,,38.0859375,-643.5546875,-64.453125,20.5078125
1770773654.6556053,,,52.734375,-439.94140625,-66.40625,23.92578125
1770773654.6616254,,,27.83203125,-302.24609375,-70.80078125,-6.34765625
1770773654.6676457,,,-3.41796875,-620.1171875,-72.75390625,-22.4609375
1770773654.6736658,,,19.53125,-826.66015625,-78.61328125,-11.23046875
1770773654.679686,,,41.50390625,-786.1328125,-84.9609375,19.04296875
1770773654.6857061,,,33.69140625,-652.83203125,-82.03125,6.8359375
1770773654.6917262,,,7.8125,-633.30078125,-77.63671875,-14.16015625
1770773654.6977465,,,18.06640625,-965.33203125,-79.1015625,16.11328125
1770773654.7037666,,,53.22265625,-593.75,-79.1015625,23.92578125
1770773654.709787,,,47.36328125,-263.671875,-74.70703125,23.4375
1770773654.715807,,,10.25390625,-579.58984375,-70.3125,15.625
1770773654.7171504,,,19.04296875,-603.515625,-60.05859375,24.90234375
1770773654.7184942,,,61.5234375,-328.61328125,-58.59375,21.97265625
1770773654.7198377,,,46.38671875,-361.81640625,-54.6875,17.578125
1770773654.7211814,,,0.9765625,-604.4921875,-48.33984375,-0.9765625
1770773654.722525,,,-8.30078125,-633.7890625,-53.7109375,8.30078125
1770773654.7238686,,,10.25390625,-736.81640625,-52.24609375,40.0390625
1770773654.725212,,,24.4140625,-890.13671875,-54.19921875,14.16015625
1770773654.7265556,,,4.39453125,-944.82421875,-62.01171875,17.578125
1770773654.7278993,,,-27.34375,-794.921875,-67.87109375,-1.953125
1770773654.7292428,,,4.39453125,-374.51171875,-69.3359375,-15.625
1770773654.7305865,,,29.296875,-433.59375,-65.91796875,7.8125
1770773654.73193,,,12.6953125,-735.3515625,-62.5,-4.8828125
1770773654.735681,,,0.0,-562.01171875,-59.08203125,17.578125
1770773654.7394323,,,5.37109375,-310.546875,-56.15234375,6.34765625
1770773654.7431836,,,24.4140625,-543.9453125,-57.12890625,-5.859375
1770773654.7469347,,,14.16015625,-830.078125,-57.12890625,11.71875
1770773654.7506857,,,-15.13671875,-716.796875,-61.03515625,-3.41796875
1770773654.754437,,,-5.859375,-765.625,-56.640625,-3.90625
1770773654.7581882,,,8.7890625,-919.921875,-42.96875,-10.7421875
1770773654.7619393,,,6.34765625,-885.7421875,-40.52734375,-14.16015625
1770773654.7656903,,,-9.27734375,-449.70703125,-47.36328125,-11.71875
1770773654.7694416,,,-3.90625,-170.8984375,-52.24609375,-6.8359375
1770773654.773193,,,28.80859375,-615.234375,-52.734375,2.9296875
1770773654.776944,,,23.4375,-799.8046875,-54.19921875,-1.46484375
1770773654.7807832,,,0.0,-311.03515625,-59.5703125,-6.34765625
1770773654.7846227,,,-43.45703125,-241.69921875,-58.10546875,-14.16015625
1770773654.788462,,,4.8828125,-648.4375,-54.19921875,2.44140625
1770773654.7923012,,,36.1328125,-648.4375,-57.6171875,-0.9765625
1770773654.7961407,,,3.90625,-357.91015625,-61.5234375,-12.20703125
1770773654.79998,,,-28.80859375,-663.57421875,-62.01171875,-15.13671875
1770773654.8038192,,,-39.55078125,-997.55859375,-63.96484375,-11.23046875
1770773654.8076587,,,8.30078125,-764.16015625,-61.03515625,9.27734375
1770773654.811498,,,13.671875,-286.62109375,-59.08203125,-20.5078125
1770773654.8153372,,,-19.04296875,-333.984375,-59.08203125,-34.66796875
1770773654.8191767,,,-14.6484375,-587.40234375,-56.15234375,-12.6953125
1770773654.823016,,,-3.90625,-446.77734375,-58.59375,-8.7890625
1770773654.8278975,,,-20.01953125,-266.11328125,-61.5234375,-38.57421875
1770773654.832779,,,-43.9453125,-485.83984375,-52.24609375,-50.78125
1770773654.8376603,,,-60.05859375,-916.9921875,-42.96875,-28.80859375
1770773654.842542,,,-17.08984375,-652.34375,-41.015625,-25.87890625
1770773654.8474236,,,-1.46484375,-342.28515625,-40.52734375,0.48828125
1770773654.852305,,,-33.69140625,-733.88671875,-39.0625,5.859375
1770773654.8571863,,,-61.5234375,-1000.0,-34.66796875,-25.390625
1770773654.862068,,,-50.78125,-744.62890625,-32.71484375,-31.25
1770773654.8669496,,,-20.5078125,-302.734375,-31.25,-9.27734375
1770773654.871831,,,0.48828125,-549.31640625,-28.80859375,-5.37109375
1770773654.8767123,,,-46.875,-633.7890625,-27.83203125,-29.78515625
1770773654.881594,,,-61.5234375,-330.56640625,-26.3671875,-33.203125
1770773654.8854263,,,-23.4375,-291.50390625,-25.390625,-24.90234375
1770773654.8892589,,,-23.92578125,-558.59375,-22.4609375,-12.20703125
1770773654.8930912,,,-44.921875,-591.796875,-14.16015625,-13.18359375
1770773654.8969235,,,-45.41015625,-303.22265625,-5.859375,-23.92578125
1770773654.9007561,,,-4.39453125,-414.55078125,1.46484375,-16.11328125
1770773654.9045885,,,18.5546875,-806.640625,8.7890625,0.0
1770773654.9084208,,,-3.90625,-964.35546875,9.27734375,-14.16015625
1770773654.9122534,,,-32.2265625,-727.05078125,6.34765625,-19.53125
1770773654.9160857,,,-4.8828125,-409.66796875,9.27734375,-18.06640625
1770773654.919918,,,37.59765625,-785.64453125,13.18359375,-3.90625
1770773654.9237506,,,23.4375,-831.54296875,9.27734375,-28.3203125
1770773654.927583,,,-24.90234375,-239.2578125,6.34765625,-53.22265625
1770773654.9324546,,,-16.11328125,-354.98046875,2.9296875,-16.11328125
1770773654.9373262,,,10.25390625,-630.859375,0.9765625,-16.6015625
1770773654.9421978,,,1.953125,-430.6640625,4.39453125,-27.83203125
1770773654.9470694,,,-25.390625,-283.69140625,6.8359375,-20.01953125
1770773654.951941,,,-35.15625,-525.87890625,13.671875,-22.94921875
1770773654.9568126,,,-9.765625,-940.4296875,15.625,-30.2734375
1770773654.961684,,,-3.90625,-806.15234375,10.25390625,-21.97265625
1770773654.9665556,,,-21.484375,-479.4921875,10.7421875,-38.57421875
1770773654.9714272,,,-32.2265625,-676.7578125,19.53125,-49.8046875
1770773654.9762988,,,-18.5546875,-1000.0,18.5546875,-24.4140625
1770773654.9811704,,,1.953125,-777.34375,11.71875,-13.671875
1770773654.986042,,,-6.34765625,-408.203125,12.6953125,-26.85546875
1770773654.9887276,,,-41.50390625,-687.01171875,8.30078125,-23.92578125
1770773654.991413,,,-18.06640625,-766.11328125,6.8359375,-15.625
1770773654.9940987,,,20.99609375,-350.09765625,11.71875,-17.08984375
1770773654.9967844,,,1.953125,-341.30859375,1.46484375,-18.06640625
1770773654.99947,,,-44.43359375,-636.71875,-12.6953125,-22.94921875
1770773655.0021555,,,-27.34375,-926.7578125,-20.99609375,0.48828125
1770773655.004841,,,20.99609375,-827.63671875,-22.4609375,-6.8359375
1770773655.0075266,,,0.48828125,-519.53125,-25.390625,-46.38671875
1770773655.0102122,,,-62.5,-781.73828125,-26.3671875,-44.43359375
1770773655.012898,,,-52.734375,-751.46484375,-27.83203125,-38.57421875
1770773655.0155835,,,-4.8828125,-294.921875,-26.85546875,-45.41015625
1770773655.018269,,,-8.30078125,-408.69140625,-26.3671875,-30.76171875
1770773655.0220423,,,-50.78125,-713.37890625,-29.296875,-45.8984375
1770773655.0258155,,,-63.96484375,-806.15234375,-28.80859375,-41.015625
1770773655.0295887,,,-23.4375,-510.25390625,-25.87890625,-10.7421875
1770773655.0333622,,,7.8125,-522.4609375,-23.92578125,2.44140625
1770773655.0371354,,,-5.859375,-781.25,-23.4375,0.9765625
1770773655.0409086,,,-48.33984375,-782.71484375,-22.4609375,-24.90234375
1770773655.0446818,,,-28.80859375,-868.1640625,-20.99609375,-24.4140625
1770773655.048455,,,-19.04296875,-875.0,-20.99609375,-1.46484375
1770773655.0522282,,,-34.1796875,-1000.0,-21.97265625,-6.34765625
1770773655.0560017,,,-43.45703125,-672.36328125,-17.08984375,-29.78515625
1770773655.0597749,,,-36.1328125,-235.3515625,-17.08984375,-29.296875
1770773655.063548,,,-5.37109375,-499.51171875,-19.53125,-24.4140625
1770773655.0672178,,,-13.18359375,-500.9765625,-16.11328125,-37.109375
1770773655.0708878,,,-46.875,-225.09765625,-15.625,-46.38671875
1770773655.0745575,,,-26.85546875,-290.52734375,-16.11328125,-24.4140625
1770773655.0782273,,,10.7421875,-557.6171875,-13.18359375,-11.23046875
1770773655.0818973,,,-24.90234375,-693.359375,-0.48828125,-42.96875
1770773655.085567,,,-66.89453125,-749.0234375,1.46484375,-49.31640625
1770773655.0892367,,,-69.82421875,-810.05859375,-3.90625,-44.43359375
1770773655.0929067,,,-36.1328125,-929.19921875,-4.39453125,-27.34375
1770773655.0965765,,,-18.06640625,-881.34765625,-6.34765625,-24.4140625
1770773655.1002462,,,-35.15625,-376.46484375,-2.44140625,-58.59375
1770773655.1039162,,,-66.89453125,-363.28125,-3.41796875,-56.640625
1770773655.107586,,,-50.29296875,-634.765625,-7.32421875,-27.83203125
1770773655.1126146,,,-20.5078125,-435.05859375,-9.765625,-14.16015625
1770773655.1176434,,,-19.04296875,-269.04296875,-14.6484375,-5.37109375
1770773655.1226723,,,-43.45703125,-565.4296875,-17.08984375,-9.765625
1770773655.127701,,,-41.9921875,-729.4921875,-14.6484375,-8.30078125
1770773655.1327298,,,2.44140625,-440.91796875,-15.625,-4.39453125
1770773655.1377585,,,-8.7890625,-684.5703125,-22.4609375,-4.39453125
1770773655.1427872,,,-43.9453125,-976.07421875,-26.85546875,-5.37109375
1770773655.147816,,,-59.5703125,-926.26953125,-31.25,-6.34765625
1770773655.152845,,,-24.4140625,-835.9375,-31.25,-10.25390625
1770773655.1578736,,,1.953125,-462.890625,-32.2265625,-22.4609375
1770773655.1629024,,,-21.97265625,-611.81640625,-36.1328125,-32.71484375
1770773655.167931,,,-47.8515625,-797.8515625,-37.109375,-24.4140625
1770773655.1704044,,,-25.87890625,-345.21484375,-37.109375,-29.78515625
1770773655.1728778,,,8.7890625,-267.08984375,-36.62109375,-47.36328125
1770773655.1753514,,,3.90625,-602.5390625,-33.203125,-45.8984375
1770773655.1778247,,,-24.90234375,-560.05859375,-33.69140625,-53.7109375
1770773655.180298,,,-14.16015625,-438.96484375,-32.2265625,-44.921875
1770773655.1827717,,,6.8359375,-851.5625,-26.3671875,-31.25
1770773655.185245,,,15.625,-935.05859375,-27.34375,-16.11328125
1770773655.1877184,,,-5.37109375,-544.921875,-31.25,-31.25
1770773655.1901917,,,-7.32421875,-297.36328125,-33.203125,-30.76171875
1770773655.192665,,,10.7421875,-413.57421875,-34.66796875,-14.6484375
1770773655.1951387,,,-8.30078125,-807.12890625,-35.64453125,0.9765625
1770773655.197612,,,-22.94921875,-918.45703125,-37.109375,-20.5078125
1770773655.203793,,,-23.4375,-667.96875,-40.52734375,-33.203125
1770773655.2099743,,,-1.46484375,-625.9765625,-47.8515625,-12.20703125
1770773655.2161553,,,0.0,-793.9453125,-53.22265625,8.7890625
1770773655.2223363,,,-18.5546875,-502.9296875,-56.15234375,-8.30078125
1770773655.2285175,,,-33.203125,-403.3203125,-61.03515625,-40.0390625
1770773655.2346985,,,-26.85546875,-843.75,-63.4765625,-5.37109375
1770773655.2408795,,,-9.765625,-952.63671875,-60.546875,-8.7890625
1770773655.2470608,,,-7.32421875,-526.85546875,-62.5,-13.671875
1770773655.2532418,,,-24.4140625,-285.64453125,-58.10546875,-15.13671875
1770773655.2594228,,,-16.11328125,-605.46875,-57.12890625,-15.13671875
1770773655.265604,,,15.13671875,-668.45703125,-62.01171875,1.953125
1770773655.271785,,,37.109375,-352.5390625,-62.01171875,-7.8125
1770773655.2755015,,,-25.390625,-352.5390625,-60.05859375,-30.76171875
1770773655.2792177,,,-48.33984375,-642.578125,-63.96484375,-36.1328125
1770773655.2829342,,,0.0,-605.46875,-67.87109375,-8.7890625
1770773655.2866507,,,11.71875,-564.94140625,-65.4296875,2.9296875
1770773655.2903671,,,-9.765625,-617.1875,-63.4765625,-29.296875
1770773655.2940836,,,-45.41015625,-792.96875,-63.96484375,-20.5078125
1770773655.2977998,,,-7.8125,-889.16015625,-66.40625,6.34765625
1770773655.3015163,,,10.7421875,-432.6171875,-69.3359375,-19.53125
1770773655.3052328,,,-20.01953125,-415.0390625,-73.73046875,-6.8359375
1770773655.308949,,,-27.83203125,-699.70703125,-73.2421875,0.48828125
1770773655.3126655,,,-24.90234375,-548.33984375,-76.66015625,-5.859375
1770773655.316382,,,-5.859375,-286.62109375,-83.0078125,-17.578125
1770773655.3189342,,,-1.46484375,-515.13671875,-90.8203125,-29.296875
1770773655.3214865,,,-48.828125,-791.015625,-102.05078125,-29.78515625
1770773655.324039,,,-55.6640625,-555.6640625,-104.98046875,-34.1796875
1770773655.3265913,,,-24.4140625,-334.47265625,-104.00390625,-23.4375
1770773655.3291435,,,-22.4609375,-563.4765625,-97.65625,-17.578125
1770773655.331696,,,-40.0390625,-958.0078125,-91.30859375,-22.4609375
1770773655.3342483,,,-35.15625,-945.80078125,-94.23828125,-10.25390625
1770773655.3368006,,,1.46484375,-629.39453125,-95.703125,2.44140625
1770773655.3393528,,,-13.671875,-673.33984375,-94.23828125,-12.20703125
1770773655.341905,,,-45.8984375,-883.7890625,-101.5625,-38.57421875
1770773655.3444576,,,-56.640625,-489.74609375,-102.05078125,-54.19921875
1770773655.34701,,,-52.24609375,-248.046875,-94.23828125,-60.05859375
1770773655.3507679,,,-39.0625,-672.36328125,-85.44921875,-67.87109375
1770773655.354526,,,-46.38671875,-812.98828125,-69.3359375,-72.265625
1770773655.358284,,,-89.84375,-320.80078125,-60.546875,-98.14453125
1770773655.362042,,,-105.46875,-212.890625,-56.640625,-113.76953125
1770773655.3658,,,-115.234375,-492.1875,-43.45703125,-132.32421875
1770773655.3695579,,,-143.06640625,-717.7734375,-23.92578125,-143.06640625
1770773655.373316,,,-195.80078125,-591.30859375,-5.37109375,-167.48046875
1770773655.377074,,,-238.28125,-333.984375,0.48828125,-211.42578125
1770773655.380832,,,-218.26171875,-716.30859375,5.37109375,-210.44921875
1770773655.3845901,,,-218.75,-749.0234375,9.27734375,-225.09765625
1770773655.388348,,,-257.8125,-412.59765625,3.90625,-250.48828125
1770773655.392106,,,-292.96875,-721.19140625,8.30078125,-245.1171875
1770773655.3958685,,,-259.765625,-771.97265625,1.953125,-237.79296875
1770773655.399631,,,-220.21484375,-385.25390625,-7.8125,-234.375
1770773655.4033935,,,-251.46484375,-103.515625,-10.25390625,-239.74609375
1770773655.407156,,,-291.9921875,-367.67578125,-22.94921875,-255.859375
1770773655.4109185,,,-262.20703125,-575.1953125,-22.4609375,-240.72265625
1770773655.4146812,,,-215.8203125,-645.99609375,-19.53125,-217.28515625
1770773655.4184437,,,-224.609375,-533.203125,-23.92578125,-214.84375
1770773655.4222062,,,-243.1640625,-524.90234375,-26.85546875,-218.26171875
1770773655.4259686,,,-199.70703125,-866.69921875,-32.2265625,-199.21875
1770773655.4297311,,,-154.78515625,-401.3671875,-38.57421875,-175.29296875
1770773655.4334936,,,-132.8125,-64.453125,-35.15625,-127.9296875
1770773655.437256,,,-125.0,-428.7109375,-30.76171875,-103.515625
1770773655.441085,,,-123.53515625,-474.609375,-32.2265625,-102.5390625
1770773655.4449143,,,-60.546875,-190.4296875,-28.3203125,-57.12890625
1770773655.4487433,,,-21.97265625,-490.234375,-36.62109375,-47.36328125
1770773655.4525723,,,-59.08203125,-839.84375,-49.8046875,-36.62109375
1770773655.4564016,,,-75.68359375,-649.4140625,-54.19921875,-22.4609375
1770773655.4602306,,,-25.390625,-572.265625,-52.734375,-9.27734375
1770773655.4640596,,,3.90625,-737.3046875,-59.5703125,15.625
1770773655.4678888,,,-3.41796875,-889.6484375,-67.3828125,10.7421875
1770773655.4717178,,,1.953125,-729.4921875,-66.89453125,7.8125
1770773655.4755468,,,48.828125,-184.08203125,-71.77734375,31.25
1770773655.479376,,,69.3359375,-269.53125,-77.1484375,41.015625
1770773655.483205,,,47.8515625,-553.7109375,-72.265625,50.29296875
1770773655.4869254,,,28.80859375,-384.765625,-71.77734375,47.8515625
1770773655.4906456,,,51.26953125,-155.76171875,-76.171875,41.9921875
1770773655.494366,,,90.33203125,-376.953125,-79.1015625,56.15234375
1770773655.4980865,,,97.65625,-581.54296875,-79.58984375,66.40625
1770773655.5018067,,,67.87109375,-385.25390625,-81.0546875,51.7578125
1770773655.505527,,,56.15234375,-615.234375,-86.9140625,38.57421875
1770773655.5092473,,,84.9609375,-897.4609375,-94.7265625,56.640625
1770773655.5129676,,,99.12109375,-1000.0,-98.14453125,75.68359375
1770773655.5166879,,,75.68359375,-685.05859375,-96.19140625,60.05859375
1770773655.5204084,,,42.96875,-251.46484375,-98.14453125,34.1796875
1770773655.5241287,,,58.59375,-572.265625,-102.05078125,66.40625
1770773655.527849,,,82.03125,-583.49609375,-109.86328125,80.56640625
1770773655.5327642,,,64.453125,-273.92578125,-115.72265625,66.89453125
1770773655.5376794,,,22.4609375,-306.640625,-111.328125,60.05859375
1770773655.5425947,,,33.203125,-642.578125,-102.5390625,74.70703125
1770773655.54751,,,63.4765625,-646.97265625,-100.09765625,66.89453125
1770773655.5524251,,,48.33984375,-363.76953125,-102.5390625,43.45703125
1770773655.5573404,,,8.30078125,-680.17578125,-104.00390625,31.25
1770773655.5622559,,,9.765625,-1000.0,-102.05078125,21.97265625
1770773655.567171,,,41.015625,-762.6953125,-97.16796875,30.2734375
1770773655.5720863,,,31.73828125,-356.4453125,-95.703125,43.45703125
1770773655.5770016,,,-4.8828125,-628.41796875,-97.16796875,33.203125
1770773655.5819168,,,-5.37109375,-854.4921875,-98.14453125,35.64453125
1770773655.586832,,,40.52734375,-521.97265625,-95.703125,35.15625
1770773655.590537,,,60.05859375,-227.05078125,-93.75,41.015625
1770773655.594242,,,18.5546875,-463.8671875,-91.30859375,42.48046875
1770773655.5979471,,,-25.87890625,-707.03125,-89.35546875,27.34375
1770773655.6016521,,,5.37109375,-395.99609375,-92.28515625,44.43359375
1770773655.6053572,,,32.2265625,-439.94140625,-99.609375,38.0859375
1770773655.609062,,,3.41796875,-890.625,-100.09765625,19.53125
1770773655.612767,,,-21.97265625,-935.05859375,-98.6328125,15.13671875
1770773655.616472,,,-10.7421875,-574.70703125,-97.65625,17.578125
1770773655.620177,,,13.18359375,-293.9453125,-93.75,4.8828125
1770773655.623882,,,-2.9296875,-611.81640625,-95.21484375,10.25390625
1770773655.627587,,,-26.85546875,-834.9609375,-100.5859375,-1.953125
1770773655.631292,,,-2.9296875,-395.01953125,-96.6796875,-21.97265625
1770773655.635157,,,14.16015625,-461.42578125,-98.14453125,7.8125
1770773655.639022,,,20.01953125,-916.015625,-104.00390625,20.5078125
1770773655.642887,,,-7.8125,-800.78125,-97.65625,-7.32421875
1770773655.646752,,,-23.92578125,-438.96484375,-95.703125,-19.53125
1770773655.6506171,,,10.7421875,-538.57421875,-95.703125,-0.9765625
1770773655.654482,,,25.390625,-935.05859375,-91.796875,9.27734375
1770773655.658347,,,5.859375,-958.984375,-83.984375,7.8125
1770773655.662212,,,-21.97265625,-583.49609375,-82.03125,-13.671875
1770773655.666077,,,-0.9765625,-515.625,-85.9375,-16.6015625
1770773655.669942,,,20.01953125,-869.62890625,-85.9375,-2.44140625
1770773655.673807,,,1.953125,-789.0625,-88.8671875,-3.90625
1770773655.677672,,,-36.1328125,-456.0546875,-90.33203125,-12.6953125
1770773655.681437,,,-15.13671875,-633.7890625,-90.33203125,-43.9453125
1770773655.6852021,,,9.765625,-832.51953125,-94.7265625,-21.484375
1770773655.6889675,,,-27.83203125,-581.0546875,-99.12109375,5.859375
1770773655.6927326,,,-45.41015625,-467.28515625,-99.12109375,-8.7890625
1770773655.6964977,,,-47.8515625,-790.0390625,-96.19140625,3.41796875
1770773655.700263,,,-22.4609375,-1000.0,-94.7265625,10.25390625
1770773655.7040281,,,-20.01953125,-961.42578125,-93.75,3.41796875
1770773655.7077932,,,-66.89453125,-651.85546875,-89.35546875,-7.32421875
1770773655.7115583,,,-83.49609375,-738.28125,-87.890625,-20.5078125
1770773655.7153234,,,-53.7109375,-965.8203125,-95.21484375,-31.25
1770773655.7190888,,,-36.62109375,-681.640625,-98.6328125,-37.109375
1770773655.722854,,,-55.6640625,-536.1328125,-93.26171875,-28.80859375
1770773655.726602,,,-77.1484375,-795.41015625,-88.37890625,-41.9921875
1770773655.7303503,,,-66.40625,-834.9609375,-88.37890625,-38.57421875
1770773655.7340984,,,-33.203125,-603.515625,-81.0546875,-35.15625
1770773655.7378466,,,-40.0390625,-604.98046875,-81.0546875,-46.38671875
1770773655.7415948,,,-82.03125,-840.8203125,-88.37890625,-49.31640625
1770773655.745343,,,-74.21875,-1000.0,-95.21484375,-36.62109375
1770773655.7490911,,,-46.875,-935.546875,-97.16796875,-16.11328125
1770773655.7528393,,,-40.52734375,-765.13671875,-94.23828125,-30.2734375
1770773655.7565875,,,-78.61328125,-932.6171875,-100.5859375,-39.0625
1770773655.7603357,,,-70.3125,-961.42578125,-98.14453125,-14.6484375
1770773655.7640839,,,-19.53125,-628.90625,-91.30859375,-13.18359375
1770773655.767832,,,-38.0859375,-673.33984375,-92.7734375,-29.296875
1770773655.771578,,,-70.80078125,-888.671875,-91.796875,-42.96875
1770773655.775324,,,-87.40234375,-721.19140625,-93.75,-43.9453125
1770773655.7790701,,,-74.21875,-560.546875,-92.7734375,-35.15625
1770773655.782816,,,-60.546875,-705.078125,-86.42578125,-19.04296875
1770773655.786562,,,-71.77734375,-902.83203125,-84.47265625,-35.64453125
1770773655.790308,,,-96.19140625,-981.4453125,-85.44921875,-46.875
1770773655.794054,,,-72.75390625,-932.6171875,-80.56640625,-17.578125
1770773655.7978,,,-36.62109375,-873.046875,-82.51953125,-21.97265625
1770773655.801546,,,-56.15234375,-961.42578125,-85.44921875,-32.71484375
1770773655.805292,,,-89.84375,-656.25,-84.9609375,-48.33984375
1770773655.809038,,,-74.70703125,-674.8046875,-88.8671875,-41.015625
1770773655.812784,,,-37.59765625,-1000.0,-94.7265625,-9.765625
1770773655.81772,,,-30.2734375,-787.59765625,-97.16796875,-24.4140625
1770773655.8226562,,,-40.52734375,-495.60546875,-92.28515625,-29.296875
1770773655.8275921,,,-56.15234375,-542.96875,-85.9375,-40.52734375
1770773655.8325284,,,-61.5234375,-793.9453125,-84.9609375,-45.8984375
1770773655.8374643,,,-42.48046875,-817.3828125,-83.0078125,-40.0390625
1770773655.8424006,,,-49.8046875,-875.48828125,-83.0078125,-50.29296875
1770773655.8473365,,,-71.2890625,-1000.0,-83.984375,-42.48046875
1770773655.8522725,,,-32.71484375,-1000.0,-81.0546875,-23.4375
1770773655.8572087,,,0.9765625,-843.26171875,-82.03125,-28.3203125
1770773655.8621447,,,-24.90234375,-454.58984375,-85.9375,-51.26953125
1770773655.867081,,,-72.265625,-505.37109375,-92.28515625,-71.77734375
1770773655.872017,,,-77.1484375,-745.1171875,-100.5859375,-62.01171875
1770773655.875781,,,-67.87109375,-578.61328125,-104.98046875,-40.52734375
1770773655.8795452,,,-82.03125,-399.90234375,-108.88671875,-57.12890625
1770773655.8833094,,,-120.60546875,-633.7890625,-107.421875,-81.0546875
1770773655.8870735,,,-128.41796875,-930.6640625,-102.5390625,-64.94140625
1770773655.8908377,,,-88.37890625,-715.8203125,-102.05078125,-41.015625
1770773655.894602,,,-82.03125,-817.87109375,-106.93359375,-44.921875
1770773655.8983662,,,-119.140625,-1000.0,-109.86328125,-39.55078125
1770773655.9021304,,,-137.6953125,-940.4296875,-104.98046875,-34.66796875
1770773655.9058945,,,-78.125,-717.7734375,-100.5859375,-26.3671875
1770773655.9096587,,,-34.1796875,-547.8515625,-98.14453125,-15.13671875
1770773655.9134228,,,-76.171875,-786.1328125,-94.23828125,-10.25390625
1770773655.917187,,,-99.12109375,-912.59765625,-94.7265625,-5.37109375
1770773655.9196894,,,-71.2890625,-650.87890625,-94.23828125,-15.625
1770773655.922192,,,-53.22265625,-537.59765625,-89.84375,-15.13671875
1770773655.9246945,,,-71.77734375,-754.8828125,-90.8203125,-9.27734375
1770773655.927197,,,-115.72265625,-767.578125,-91.796875,-48.828125
1770773655.9296994,,,-104.98046875,-594.23828125,-94.7265625,-48.33984375
1770773655.9322019,,,-102.05078125,-877.44140625,-95.21484375,-23.92578125
1770773655.9347045,,,-111.328125,-1000.0,-87.40234375,-29.78515625
1770773655.937207,,,-106.4453125,-912.109375,-84.47265625,-15.625
1770773655.9397094,,,-82.03125,-596.6796875,-80.56640625,-8.7890625
1770773655.942212,,,-54.6875,-510.7421875,-70.3125,-34.1796875
1770773655.9447145,,,-50.78125,-895.5078125,-74.21875,-23.4375
1770773655.947217,,,-64.94140625,-901.85546875,-76.66015625,-3.90625
1770773655.9521456,,,-75.68359375,-442.87109375,-66.89453125,-32.2265625
1770773655.9570742,,,-26.85546875,-531.25,-64.94140625,-20.5078125
1770773655.9620028,,,1.953125,-729.98046875,-64.94140625,-4.39453125
1770773655.9669313,,,-0.9765625,-462.890625,-56.640625,-23.4375
1770773655.97186,,,-5.859375,-431.640625,-44.921875,-27.83203125
1770773655.9767885,,,13.18359375,-814.453125,-41.015625,-1.953125
1770773655.981717,,,43.9453125,-971.19140625,-39.55078125,14.6484375
1770773655.9866457,,,50.29296875,-575.68359375,-31.25,-1.953125
1770773655.9915743,,,-0.48828125,-300.78125,-32.2265625,-21.97265625
1770773655.9965029,,,-5.37109375,-661.1328125,-33.203125,-24.90234375
1770773656.0014315,,,34.1796875,-942.87109375,-26.3671875,-14.16015625
1770773656.00636,,,32.71484375,-561.03515625,-20.99609375,-8.7890625
1770773656.010134,,,13.671875,-343.26171875,-15.13671875,-23.4375
1770773656.013908,,,-6.34765625,-729.4921875,-16.6015625,-30.76171875
1770773656.017682,,,17.578125,-832.51953125,-20.01953125,-10.25390625
1770773656.021456,,,23.4375,-446.2890625,-19.53125,-7.32421875
1770773656.02523,,,-11.23046875,-610.3515625,-25.87890625,-3.90625
1770773656.029004,,,-17.578125,-1000.0,-28.80859375,3.41796875
1770773656.032778,,,0.0,-864.74609375,-28.3203125,-5.859375
1770773656.036552,,,28.3203125,-461.42578125,-34.66796875,-4.39453125
1770773656.0403259,,,5.859375,-501.953125,-39.55078125,-19.53125
1770773656.0440998,,,-47.8515625,-826.66015625,-31.73828125,-29.296875
1770773656.047874,,,-39.55078125,-692.3828125,-28.3203125,-6.34765625
1770773656.051648,,,-19.53125,-421.38671875,-34.66796875,-5.37109375
1770773656.0555332,,,-24.90234375,-546.38671875,-32.71484375,-15.625
1770773656.0594184,,,-45.8984375,-938.4765625,-31.25,-18.06640625
1770773656.0633037,,,-46.38671875,-891.6015625,-35.15625,-11.71875
1770773656.067189,,,-7.8125,-494.140625,-37.59765625,-3.90625
1770773656.0710742,,,4.8828125,-640.13671875,-39.55078125,-3.41796875
1770773656.0749593,,,-43.9453125,-1000.0,-35.64453125,-9.765625
1770773656.0788445,,,-65.91796875,-935.05859375,-33.69140625,-24.4140625
1770773656.0827298,,,-17.08984375,-583.49609375,-35.64453125,-10.7421875
1770773656.086615,,,-8.30078125,-714.84375,-37.59765625,11.23046875
1770773656.0905004,,,-36.1328125,-943.359375,-38.0859375,1.46484375
1770773656.0943856,,,-38.0859375,-652.83203125,-37.109375,-21.97265625
1770773656.098271,,,-22.94921875,-505.859375,-32.71484375,-20.99609375
1770773656.1031108,,,25.87890625,-768.06640625,-31.73828125,-18.5546875
1770773656.107951,,,45.8984375,-751.953125,-29.78515625,-4.39453125
1770773656.112791,,,1.953125,-499.51171875,-22.4609375,11.23046875
1770773656.117631,,,24.4140625,-520.01953125,-22.94921875,11.71875
1770773656.1224709,,,57.6171875,-739.2578125,-27.34375,11.71875
1770773656.127311,,,45.8984375,-943.84765625,-26.85546875,24.90234375
1770773656.1321511,,,18.5546875,-976.07421875,-23.92578125,32.71484375
1770773656.136991,,,31.25,-956.54296875,-28.3203125,38.0859375
1770773656.141831,,,76.171875,-999.0234375,-35.15625,43.45703125
1770773656.146671,,,79.1015625,-876.46484375,-42.96875,27.34375
1770773656.1515112,,,78.125,-394.53125,-47.36328125,7.32421875
1770773656.156351,,,40.52734375,-387.20703125,-54.19921875,-8.30078125
1770773656.160239,,,21.484375,-625.48828125,-62.98828125,13.18359375
1770773656.1641269,,,48.33984375,-394.53125,-59.08203125,31.25
1770773656.1680148,,,14.6484375,-220.21484375,-60.05859375,15.625
1770773656.1719027,,,-30.76171875,-495.1171875,-70.80078125,-2.9296875
1770773656.1757905,,,-16.6015625,-708.49609375,-75.68359375,0.9765625
1770773656.1796787,,,0.9765625,-739.74609375,-83.0078125,4.39453125
1770773656.1835666,,,-11.71875,-738.28125,-88.8671875,-15.13671875
1770773656.1874545,,,-29.78515625,-668.9453125,-90.8203125,-9.27734375
1770773656.1913424,,,1.46484375,-978.515625,-92.28515625,5.859375
1770773656.1952302,,,38.57421875,-785.15625,-94.23828125,-3.90625
1770773656.1991181,,,12.6953125,-236.328125,-96.6796875,-9.27734375
1770773656.203006,,,-34.66796875,-580.078125,-94.23828125,0.48828125
1770773656.205507,,,-57.6171875,-819.82421875,-93.26171875,-22.4609375
1770773656.2080078,,,-6.34765625,-261.71875,-93.75,-29.296875
1770773656.2105088,,,7.8125,-182.6171875,-101.5625,-20.5078125
1770773656.2130096,,,-35.15625,-502.9296875,-103.02734375,-22.4609375
1770773656.2155106,,,-17.08984375,-522.4609375,-95.703125,-11.23046875
1770773656.2180116,,,31.25,-586.42578125,-92.28515625,4.39453125
1770773656.2205124,,,5.37109375,-737.3046875,-94.7265625,-2.44140625
1770773656.2230134,,,-23.92578125,-878.41796875,-104.4921875,-7.32421875
1770773656.2255142,,,-9.27734375,-686.5234375,-110.3515625,-8.7890625
1770773656.2280152,,,3.41796875,-138.671875,-116.2109375,-11.23046875
1770773656.230516,,,10.25390625,-353.515625,-123.53515625,-9.27734375
1770773656.233017,,,-3.41796875,-646.484375,-130.859375,-20.5078125
1770773656.2378685,,,-36.62109375,-635.7421875,-136.23046875,-36.1328125
1770773656.2427201,,,-25.87890625,-481.93359375,-136.71875,-29.78515625
1770773656.2475717,,,-13.671875,-482.91015625,-142.08984375,-20.99609375
1770773656.2524233,,,-36.62109375,-751.46484375,-142.578125,-15.625
1770773656.2572749,,,-44.921875,-569.3359375,-132.32421875,-1.46484375
1770773656.2621264,,,-54.6875,-627.44140625,-128.41796875,-16.11328125
1770773656.266978,,,-0.9765625,-852.5390625,-128.90625,-15.13671875
1770773656.2718296,,,17.578125,-894.04296875,-125.48828125,-7.32421875
1770773656.2766812,,,-20.01953125,-457.03125,-120.60546875,-25.390625
1770773656.2815328,,,-38.0859375,-177.24609375,-124.51171875,-37.109375
1770773656.2863843,,,3.90625,-557.6171875,-123.046875,-17.08984375
1770773656.291236,,,43.45703125,-618.1640625,-122.55859375,-3.90625
1770773656.2938597,,,12.6953125,-256.8359375,-125.48828125,-17.578125
1770773656.2964835,,,-11.23046875,-256.34765625,-121.58203125,-28.80859375
1770773656.2991073,,,2.44140625,-568.84765625,-120.60546875,-16.11328125
1770773656.3017313,,,18.5546875,-576.171875,-114.74609375,15.625
1770773656.3043551,,,20.5078125,-581.54296875,-108.3984375,4.8828125
1770773656.306979,,,11.23046875,-819.3359375,-110.83984375,-15.13671875
1770773656.3096027,,,-23.4375,-966.30859375,-110.83984375,-24.4140625
1770773656.3122265,,,-7.32421875,-736.81640625,-107.91015625,-31.25
1770773656.3148503,,,8.7890625,-241.69921875,-103.515625,-36.62109375
1770773656.3174744,,,-32.2265625,-266.6015625,-94.7265625,-33.203125
1770773656.3200982,,,-54.19921875,-731.4453125,-85.44921875,-35.15625
1770773656.322722,,,-8.30078125,-595.703125,-82.03125,-29.296875
1770773656.327595,,,22.4609375,-90.33203125,-86.42578125,-27.34375
1770773656.332468,,,-16.6015625,-313.4765625,-91.30859375,-31.73828125
1770773656.3373413,,,-64.94140625,-665.52734375,-86.42578125,-15.625
1770773656.3422143,,,-25.87890625,-356.93359375,-82.51953125,-19.04296875
1770773656.3470874,,,20.01953125,-144.53125,-81.54296875,-17.578125
1770773656.3519604,,,-5.37109375,-608.88671875,-74.21875,-2.44140625
1770773656.3568335,,,-57.6171875,-904.296875,-73.73046875,-29.78515625
1770773656.3617065,,,-40.52734375,-666.50390625,-74.70703125,-37.109375
1770773656.3665798,,,8.7890625,-377.44140625,-70.80078125,-7.32421875
1770773656.3714528,,,-11.71875,-527.34375,-67.87109375,-6.8359375
1770773656.3763258,,,-55.17578125,-720.21484375,-65.4296875,-30.2734375
1770773656.381199,,,-34.66796875,-244.62890625,-70.3125,-18.06640625
1770773656.385085,,,5.859375,-116.69921875,-71.2890625,-8.30078125
1770773656.3889716,,,3.90625,-447.75390625,-69.82421875,-12.20703125
1770773656.392858,,,-11.23046875,-503.41796875,-72.75390625,-8.30078125
1770773656.3967443,,,-24.90234375,-163.57421875,-66.89453125,-20.5078125
1770773656.4006305,,,2.9296875,-211.42578125,-63.4765625,-11.71875
1770773656.404517,,,24.4140625,-755.37109375,-67.87109375,8.7890625
1770773656.4084034,,,-8.7890625,-799.31640625,-68.359375,3.41796875
1770773656.4122896,,,-32.71484375,-304.6875,-65.4296875,-5.859375
1770773656.4161758,,,-16.11328125,-263.18359375,-63.4765625,9.765625
1770773656.4200623,,,15.625,-721.6796875,-62.5,33.203125
1770773656.4239488,,,16.6015625,-705.078125,-61.03515625,21.484375
1770773656.427835,,,-39.55078125,-468.75,-64.453125,3.41796875
1770773656.4326918,,,-30.2734375,-477.05078125,-66.89453125,14.16015625
1770773656.4375489,,,6.8359375,-642.08984375,-67.3828125,6.34765625
1770773656.4424057,,,1.953125,-478.02734375,-62.5,3.90625
1770773656.4472628,,,-22.4609375,-189.94140625,-58.10546875,-5.859375
1770773656.4521196,,,-20.99609375,-490.72265625,-57.12890625,-2.44140625
1770773656.4569767,,,11.71875,-888.671875,-53.22265625,4.8828125
1770773656.4618335,,,11.23046875,-668.9453125,-57.12890625,-14.6484375
1770773656.4666903,,,-1.46484375,-217.28515625,-64.94140625,-12.20703125
1770773656.4715474,,,-4.8828125,-508.7890625,-66.89453125,-2.9296875
1770773656.4764042,,,38.57421875,-882.32421875,-65.91796875,4.39453125
1770773656.4812613,,,55.17578125,-405.76171875,-69.82421875,8.7890625
1770773656.486118,,,11.23046875,-199.70703125,-70.80078125,15.13671875
1770773656.4887745,,,-27.34375,-571.2890625,-70.3125,5.37109375
1770773656.491431,,,-19.53125,-538.57421875,-66.40625,1.953125
1770773656.4940875,,,7.8125,-449.70703125,-65.91796875,8.7890625
1770773656.4967442,,,0.48828125,-593.26171875,-68.359375,20.99609375
1770773656.4994006,,,-36.62109375,-708.49609375,-65.91796875,1.46484375
1770773656.502057,,,-45.8984375,-1000.0,-72.75390625,-16.11328125
1770773656.5047135,,,-23.4375,-727.5390625,-74.21875,1.46484375
1770773656.50737,,,-35.15625,-385.7421875,-66.89453125,-8.7890625
1770773656.5100265,,,-71.77734375,-751.46484375,-66.89453125,-16.11328125
1770773656.5126832,,,-57.6171875,-763.18359375,-62.98828125,-6.8359375
1770773656.5153396,,,-20.5078125,-249.0234375,-57.12890625,3.41796875
1770773656.517996,,,-18.5546875,-354.4921875,-49.8046875,4.8828125
1770773656.5229166,,,-38.0859375,-673.828125,-42.48046875,-4.8828125
1770773656.527837,,,-62.5,-525.87890625,-47.36328125,-17.578125
1770773656.5327575,,,-35.64453125,-293.9453125,-46.875,-7.8125
1770773656.537678,,,12.20703125,-469.23828125,-44.921875,5.37109375
1770773656.5425985,,,-16.6015625,-725.09765625,-54.19921875,-10.25390625
1770773656.547519,,,-64.453125,-812.5,-56.640625,-23.4375
1770773656.5524397,,,-34.1796875,-844.7265625,-56.15234375,-44.921875
1770773656.5573602,,,8.30078125,-868.1640625,-53.7109375,-41.9921875
1770773656.5622807,,,-14.16015625,-1000.0,-50.78125,-19.04296875
1770773656.5672011,,,-50.29296875,-723.14453125,-53.22265625,-32.2265625
1770773656.5721216,,,-42.48046875,-283.203125,-53.22265625,-24.90234375
1770773656.577042,,,-16.11328125,-570.3125,-50.78125,-17.08984375
1770773656.5807414,,,1.46484375,-614.74609375,-52.734375,-16.11328125
1770773656.5844407,,,-19.04296875,-307.12890625,-59.5703125,-18.5546875
1770773656.5881398,,,-42.48046875,-352.05078125,-62.01171875,-22.94921875
1770773656.591839,,,-2.44140625,-670.8984375,-60.546875,-2.44140625
1770773656.5955384,,,10.7421875,-676.7578125,-64.94140625,-18.5546875
1770773656.5992374,,,-19.53125,-705.56640625,-65.91796875,-35.64453125
1770773656.6029367,,,-25.87890625,-865.234375,-64.94140625,-20.5078125
1770773656.606636,,,-0.9765625,-934.5703125,-64.453125,-29.78515625
1770773656.6103354,,,16.6015625,-775.87890625,-62.98828125,-28.3203125
1770773656.6140347,,,24.4140625,-471.6796875,-62.5,-9.765625
1770773656.6177337,,,-3.41796875,-693.84765625,-59.08203125,-10.7421875
1770773656.621433,,,-9.27734375,-898.92578125,-55.6640625,-18.06640625
1770773656.6240032,,,21.97265625,-614.74609375,-47.8515625,6.8359375
1770773656.6265736,,,26.85546875,-250.48828125,-40.0390625,13.671875
1770773656.6291437,,,-2.44140625,-517.08984375,-45.41015625,-13.18359375
1770773656.631714,,,-17.08984375,-723.14453125,-47.8515625,-14.6484375
1770773656.6342843,,,21.97265625,-446.2890625,-47.36328125,2.44140625
1770773656.6368544,,,34.1796875,-625.0,-48.828125,-6.8359375
1770773656.6394248,,,-2.44140625,-946.77734375,-45.41015625,-17.08984375
1770773656.641995,,,-24.4140625,-843.26171875,-41.015625,-6.34765625
1770773656.6445653,,,2.9296875,-468.75,-39.0625,5.859375
1770773656.6471355,,,31.73828125,-226.5625,-40.52734375,-11.23046875
1770773656.649706,,,9.765625,-601.5625,-38.57421875,-26.85546875
1770773656.652276,,,-34.1796875,-867.1875,-35.15625,-2.9296875
1770773656.6572096,,,5.37109375,-422.8515625,-30.76171875,0.48828125
1770773656.6621432,,,20.01953125,-522.94921875,-33.69140625,-13.671875
1770773656.6670768,,,-2.9296875,-942.3828125,-42.96875,-32.71484375
1770773656.6720104,,,-7.8125,-693.84765625,-47.8515625,-53.7109375
1770773656.676944,,,-5.37109375,-272.94921875,-41.015625,-34.1796875
1770773656.6818776,,,22.94921875,-529.78515625,-37.109375,-7.32421875
1770773656.686811,,,18.06640625,-949.70703125,-41.50390625,-25.390625
1770773656.6917446,,,-9.765625,-725.09765625,-38.0859375,-49.8046875
1770773656.6966782,,,-20.01953125,-152.34375,-30.2734375,-41.015625
1770773656.7016118,,,-0.48828125,-184.08203125,-28.80859375,-34.66796875
1770773656.7065454,,,21.97265625,-446.77734375,-24.90234375,-10.25390625
1770773656.711479,,,-1.953125,-342.7734375,-23.92578125,-11.23046875
1770773656.715233,,,-23.4375,-132.8125,-29.78515625,-28.80859375
1770773656.718987,,,-2.44140625,-266.11328125,-34.66796875,-16.11328125
1770773656.7227411,,,28.80859375,-504.8828125,-36.1328125,-6.34765625
1770773656.7264953,,,5.37109375,-305.17578125,-31.73828125,-8.30078125
1770773656.7302494,,,-28.80859375,-253.90625,-29.296875,-28.80859375
1770773656.7340035,,,-20.01953125,-667.96875,-31.25,-25.87890625
1770773656.7377574,,,16.11328125,-1000.0,-32.71484375,-4.39453125
1770773656.7415116,,,20.99609375,-687.5,-28.3203125,-18.5546875
1770773656.7452657,,,-10.7421875,-190.91796875,-28.3203125,-45.8984375
1770773656.7490196,,,-7.8125,-527.83203125,-26.3671875,-30.2734375
1770773656.7527738,,,15.625,-767.578125,-24.90234375,-22.4609375
1770773656.756528,,,23.4375,-277.34375,-24.4140625,-11.23046875
1770773656.7603505,,,-16.11328125,-157.2265625,-28.3203125,-11.23046875
1770773656.764173,,,-29.78515625,-502.9296875,-28.80859375,-22.94921875
1770773656.7679954,,,5.37109375,-571.77734375,-20.99609375,-20.01953125
1770773656.771818,,,0.48828125,-283.203125,-20.01953125,-16.6015625
1770773656.7756405,,,-29.78515625,-318.359375,-23.92578125,-19.53125
1770773656.7794628,,,-24.90234375,-788.0859375,-22.94921875,-25.87890625
1770773656.7832854,,,7.8125,-846.6796875,-19.04296875,-17.578125
1770773656.787108,,,12.6953125,-358.88671875,-18.5546875,-9.27734375
1770773656.7909305,,,9.765625,-407.71484375,-17.08984375,-19.04296875
1770773656.794753,,,-32.2265625,-880.37109375,-20.01953125,-29.78515625
1770773656.7985754,,,-30.2734375,-731.4453125,-20.99609375,-41.50390625
1770773656.802398,,,6.34765625,-223.6328125,-17.08984375,-11.71875
1770773656.806272,,,0.0,-347.65625,-18.06640625,-5.37109375
1770773656.8101463,,,-38.57421875,-746.58203125,-24.90234375,-31.73828125
1770773656.8140204,,,-49.8046875,-543.45703125,-28.3203125,-40.52734375
1770773656.8178947,,,-20.01953125,-231.93359375,-20.99609375,-42.48046875
1770773656.8217688,,,-13.18359375,-458.984375,-21.97265625,-33.203125
1770773656.8256428,,,-22.94921875,-906.73828125,-22.94921875,-46.38671875
1770773656.8295171,,,-21.484375,-809.08203125,-19.53125,-49.31640625
1770773656.8333912,,,5.859375,-353.02734375,-21.97265625,-31.25
1770773656.8372655,,,15.625,-562.01171875,-25.87890625,-14.6484375
1770773656.8411396,,,-32.2265625,-895.99609375,-32.2265625,-20.5078125
1770773656.8450139,,,-64.453125,-452.1484375,-30.2734375,-42.48046875
1770773656.848888,,,-39.55078125,-225.09765625,-13.18359375,-53.7109375
1770773656.85382,,,-29.78515625,-711.9140625,-6.34765625,-41.50390625
1770773656.858752,,,-44.921875,-738.28125,-13.18359375,-58.10546875
1770773656.8636842,,,-69.3359375,-251.46484375,-5.859375,-87.40234375
1770773656.8686163,,,-101.07421875,-195.3125,-0.9765625,-106.93359375
1770773656.8735483,,,-78.61328125,-492.67578125,1.953125,-114.74609375
