timestamp,marker_code,marker_label,EEG_0,EEG_1,EEG_2,EEG_3
1770774292.349359,,,-21.97265625,3.90625,849.609375,-47.36328125
1770774292.3518782,,,41.9921875,-18.06640625,855.46875,-38.0859375
1770774292.3543973,,,-20.01953125,-50.78125,929.6875,-77.63671875
1770774292.3569162,,,-66.89453125,-21.484375,674.31640625,2.44140625
1770774292.3594353,,,-5.859375,-45.41015625,372.0703125,71.2890625
1770774292.3619545,,,17.08984375,-38.0859375,693.359375,-8.30078125
1770774292.3644736,,,-0.9765625,-46.38671875,771.97265625,-27.83203125
1770774292.3669927,,,-19.53125,-47.36328125,869.140625,-20.5078125
1770774292.3695118,,,2.9296875,-13.671875,982.91015625,-37.109375
1770774292.3720307,,,-12.6953125,-29.78515625,925.78125,-34.1796875
1770774292.3745499,,,-37.109375,-39.55078125,999.51171875,-43.45703125
1770774292.377069,,,-16.11328125,-48.828125,620.60546875,-47.36328125
1770774292.382097,,,-0.9765625,-48.828125,301.26953125,-12.20703125
1770774292.387125,,,-13.671875,-21.97265625,916.015625,-40.0390625
1770774292.392153,,,-23.92578125,-36.1328125,995.1171875,-41.50390625
1770774292.397181,,,-26.3671875,-31.73828125,934.08203125,-42.48046875
1770774292.402209,,,-45.41015625,-28.3203125,988.76953125,-67.3828125
1770774292.407237,,,-14.6484375,-36.1328125,786.62109375,-40.52734375
1770774292.412265,,,-16.6015625,-29.296875,691.40625,-34.66796875
1770774292.417293,,,-47.8515625,-23.4375,166.50390625,-62.01171875
1770774292.422321,,,-41.9921875,-22.94921875,-75.68359375,-82.51953125
1770774292.427349,,,5.859375,-28.3203125,742.67578125,-61.03515625
1770774292.432377,,,19.53125,-27.34375,898.4375,-32.71484375
1770774292.437405,,,-7.8125,-24.4140625,792.96875,-44.43359375
1770774292.4434783,,,-41.9921875,-18.5546875,680.6640625,-67.87109375
1770774292.4495518,,,-42.96875,-18.5546875,666.50390625,-45.41015625
1770774292.455625,,,-1.953125,-35.64453125,515.625,-16.6015625
1770774292.4616983,,,-18.06640625,-48.33984375,331.0546875,-44.43359375
1770774292.4677718,,,-48.828125,-38.57421875,418.9453125,-55.17578125
1770774292.473845,,,-11.23046875,-35.64453125,210.44921875,-37.109375
1770774292.4799182,,,6.8359375,-31.25,46.875,-29.296875
1770774292.4859917,,,-21.97265625,-17.578125,164.55078125,-20.5078125
1770774292.492065,,,-44.921875,-12.20703125,188.4765625,-45.8984375
1770774292.4981382,,,-48.828125,-30.2734375,120.60546875,-60.05859375
1770774292.5042117,,,-28.3203125,-50.78125,-419.921875,-33.203125
1770774292.510285,,,-18.06640625,-49.31640625,-936.03515625,-14.6484375
1770774292.5117981,,,-42.48046875,-32.71484375,-426.7578125,-37.109375
1770774292.5133114,,,-56.15234375,-31.73828125,-125.0,-59.5703125
1770774292.5148246,,,-33.203125,-47.8515625,-194.82421875,-38.0859375
1770774292.5163379,,,-29.78515625,-64.94140625,-246.09375,-32.2265625
1770774292.517851,,,-52.734375,-51.26953125,-322.75390625,-48.33984375
1770774292.5193644,,,-58.59375,-36.62109375,-630.859375,-59.5703125
1770774292.5208778,,,-42.96875,-45.8984375,-971.19140625,-37.109375
1770774292.522391,,,-44.921875,-41.50390625,-838.37890625,-23.92578125
1770774292.5239043,,,-41.50390625,-36.62109375,-630.859375,-48.33984375
1770774292.5254176,,,-61.5234375,-47.36328125,-795.8984375,-61.5234375
1770774292.5269308,,,-57.6171875,-45.41015625,-962.40234375,-57.12890625
1770774292.528444,,,-19.04296875,-38.0859375,-922.8515625,-31.25
1770774292.5320926,,,-38.0859375,-43.9453125,-940.4296875,-30.76171875
1770774292.5357413,,,-57.6171875,-64.94140625,-996.58203125,-34.1796875
1770774292.5393898,,,-53.7109375,-77.63671875,-1000.0,-18.5546875
1770774292.5430384,,,-35.15625,-57.12890625,-998.53515625,-37.59765625
1770774292.546687,,,-22.4609375,-49.31640625,-1000.0,-41.9921875
1770774292.5503354,,,-39.0625,-45.8984375,-1000.0,-28.3203125
1770774292.5539842,,,-49.8046875,-37.59765625,-1000.0,-25.87890625
1770774292.5576327,,,-15.625,-48.33984375,-1000.0,-18.06640625
1770774292.5612812,,,4.39453125,-37.59765625,-1000.0,-10.7421875
1770774292.56493,,,0.9765625,-33.203125,-1000.0,1.953125
1770774292.5685785,,,-14.16015625,-44.43359375,-1000.0,-12.20703125
1770774292.572227,,,3.90625,-41.9921875,-1000.0,0.48828125
1770774292.5760643,,,30.2734375,-49.8046875,-1000.0,29.296875
1770774292.5799017,,,-0.9765625,-52.24609375,-987.79296875,3.41796875
1770774292.5837393,,,-34.66796875,-60.546875,-995.1171875,-20.5078125
1770774292.5875766,,,-11.23046875,-45.8984375,-982.421875,-20.5078125
1770774292.591414,,,-7.32421875,-36.62109375,-959.9609375,-8.30078125
1770774292.5952516,,,-16.6015625,-62.5,-989.74609375,-1.953125
1770774292.599089,,,-14.16015625,-56.15234375,-1000.0,-5.859375
1770774292.6029263,,,-18.06640625,-48.33984375,-970.21484375,-23.92578125
1770774292.6067636,,,2.9296875,-48.828125,-823.73046875,-7.32421875
1770774292.610601,,,12.20703125,-56.15234375,-947.265625,14.6484375
1770774292.6144385,,,-3.41796875,-35.15625,-888.671875,-8.7890625
1770774292.618276,,,-41.9921875,-31.25,-560.05859375,-16.11328125
1770774292.6219265,,,-54.19921875,-57.6171875,-610.3515625,1.46484375
1770774292.6255774,,,8.30078125,-46.38671875,-628.90625,25.390625
1770774292.629228,,,13.18359375,-31.25,-354.4921875,15.13671875
1770774292.632879,,,-51.26953125,-41.9921875,-232.421875,-21.484375
1770774292.6365297,,,-16.6015625,-43.45703125,-412.59765625,-1.953125
1770774292.6401803,,,26.3671875,-47.8515625,-650.390625,62.5
1770774292.6438313,,,-16.6015625,-63.4765625,-451.171875,19.53125
1770774292.647482,,,-38.57421875,-68.359375,-65.4296875,-35.64453125
1770774292.6511328,,,-16.6015625,-36.62109375,-335.44921875,-3.90625
1770774292.6547835,,,-16.11328125,-41.015625,-917.48046875,31.25
1770774292.6584344,,,16.6015625,-65.4296875,-306.640625,14.16015625
1770774292.662085,,,-21.484375,-35.15625,257.8125,-26.3671875
1770774292.6669474,,,-68.359375,-36.62109375,-42.48046875,-30.76171875
1770774292.67181,,,16.11328125,-39.55078125,8.30078125,-9.27734375
1770774292.6766722,,,20.5078125,-35.64453125,347.16796875,1.953125
1770774292.6815348,,,-35.64453125,-30.2734375,372.55859375,-2.44140625
1770774292.686397,,,-34.66796875,-8.30078125,246.58203125,-8.30078125
1770774292.6912596,,,-5.859375,-20.5078125,92.28515625,-19.53125
1770774292.696122,,,0.48828125,-20.01953125,217.7734375,-44.43359375
1770774292.7009842,,,-46.38671875,-38.0859375,496.58203125,-36.1328125
1770774292.7058468,,,-48.33984375,-36.1328125,-120.60546875,-31.25
1770774292.710709,,,20.01953125,-41.50390625,-170.8984375,-67.3828125
1770774292.7155716,,,-8.30078125,-57.12890625,589.84375,-37.109375
1770774292.720434,,,-12.20703125,-20.01953125,526.85546875,12.20703125
1770774292.723124,,,-6.8359375,-35.15625,309.5703125,-55.17578125
1770774292.7258143,,,-51.7578125,-50.29296875,354.4921875,-102.05078125
1770774292.7285044,,,-19.53125,-33.203125,641.6015625,-62.98828125
1770774292.7311947,,,5.859375,-19.04296875,592.7734375,-5.859375
1770774292.7338848,,,-20.01953125,-48.33984375,270.01953125,-43.45703125
1770774292.736575,,,-35.15625,-57.12890625,352.5390625,-63.4765625
1770774292.7392652,,,-37.59765625,-19.53125,696.77734375,-56.15234375
1770774292.7419553,,,-34.1796875,-42.48046875,612.3046875,-60.05859375
1770774292.7446456,,,-34.66796875,-55.17578125,282.71484375,-85.44921875
1770774292.7473357,,,-37.109375,-8.30078125,800.29296875,-80.078125
1770774292.750026,,,-19.04296875,-6.34765625,999.51171875,-40.0390625
1770774292.752716,,,9.27734375,-14.16015625,789.0625,-63.4765625
1770774292.7587998,,,-8.30078125,-31.25,813.4765625,-13.18359375
1770774292.7648835,,,-47.36328125,-49.31640625,992.1875,-64.94140625
1770774292.7709672,,,-57.6171875,-32.71484375,963.37890625,-110.83984375
1770774292.777051,,,-27.83203125,-18.5546875,850.09765625,-65.4296875
1770774292.7831347,,,-21.484375,-16.11328125,755.859375,-25.87890625
1770774292.7892184,,,-43.9453125,-33.69140625,611.328125,-51.7578125
1770774292.7953024,,,-71.77734375,-14.16015625,659.66796875,-139.16015625
1770774292.801386,,,-26.85546875,-33.203125,239.2578125,-51.7578125
1770774292.8074698,,,-4.39453125,-58.59375,11.23046875,31.25
1770774292.8135536,,,-19.53125,-16.11328125,793.45703125,-50.29296875
1770774292.8196373,,,-22.94921875,-12.6953125,829.58984375,-59.08203125
1770774292.825721,,,-4.8828125,-22.4609375,662.59765625,-32.71484375
1770774292.8282087,,,-21.97265625,-25.390625,868.1640625,-42.96875
1770774292.830696,,,-54.19921875,-20.99609375,926.7578125,-58.10546875
1770774292.8331838,,,-52.734375,-8.7890625,661.62109375,-73.73046875
1770774292.8356714,,,-23.92578125,-9.27734375,514.16015625,-53.7109375
1770774292.8381588,,,-20.99609375,-11.23046875,666.015625,-47.36328125
1770774292.8406465,,,-52.24609375,-20.99609375,571.2890625,-61.5234375
1770774292.8431342,,,-56.640625,-40.52734375,179.19921875,-65.91796875
1770774292.8456216,,,-22.94921875,-49.31640625,-149.90234375,-50.29296875
1770774292.8481092,,,-13.671875,-28.80859375,215.33203125,-44.43359375
1770774292.850597,,,-50.29296875,-9.27734375,598.14453125,-48.33984375
1770774292.8530843,,,-62.98828125,-17.08984375,264.6484375,-74.70703125
1770774292.855572,,,-59.08203125,-33.69140625,162.109375,-71.77734375
1770774292.8592873,,,-18.06640625,-34.1796875,482.91015625,-49.8046875
1770774292.8630025,,,9.765625,-24.90234375,536.62109375,-30.2734375
1770774292.8667178,,,1.46484375,-47.36328125,-104.98046875,-15.13671875
1770774292.870433,,,-22.4609375,-58.10546875,-466.30859375,-31.73828125
1770774292.8741484,,,-21.97265625,-38.0859375,154.296875,-35.64453125
1770774292.8778634,,,-8.30078125,-39.0625,88.8671875,-11.71875
1770774292.8815787,,,-22.94921875,-44.43359375,-542.48046875,-21.97265625
1770774292.885294,,,-38.57421875,-34.1796875,-596.19140625,-72.75390625
1770774292.8890092,,,-27.34375,-42.96875,-69.82421875,-78.125
1770774292.8927245,,,-20.5078125,-47.8515625,-140.625,-38.57421875
1770774292.8964398,,,-23.4375,-34.1796875,-469.7265625,-38.57421875
1770774292.900155,,,-40.0390625,-26.85546875,-590.33203125,-65.91796875
1770774292.9040918,,,-44.43359375,-16.11328125,-553.7109375,-61.03515625
1770774292.9080286,,,-18.06640625,-23.4375,-621.58203125,-34.66796875
1770774292.9119654,,,-13.671875,-35.15625,-843.75,-11.71875
1770774292.9159021,,,-45.41015625,-30.2734375,-734.86328125,-31.73828125
1770774292.919839,,,-57.6171875,-37.59765625,-722.65625,-44.921875
1770774292.9237757,,,-21.97265625,-50.29296875,-958.984375,-7.8125
1770774292.9277122,,,-20.99609375,-48.33984375,-977.05078125,-4.8828125
1770774292.931649,,,-53.22265625,-42.48046875,-875.48828125,-36.1328125
1770774292.9355857,,,-55.17578125,-36.62109375,-957.51953125,-62.01171875
1770774292.9395225,,,-40.0390625,-47.36328125,-1000.0,-40.0390625
1770774292.9434593,,,-19.04296875,-55.17578125,-996.58203125,-11.71875
1770774292.947396,,,-17.578125,-51.7578125,-1000.0,-22.94921875
1770774292.9512558,,,-43.45703125,-44.43359375,-1000.0,-54.6875
1770774292.9551153,,,-45.41015625,-36.62109375,-1000.0,-60.546875
1770774292.958975,,,-23.92578125,-48.828125,-1000.0,-39.0625
1770774292.9628346,,,-11.71875,-51.7578125,-1000.0,-29.78515625
1770774292.9666944,,,-39.55078125,-50.78125,-1000.0,-47.36328125
1770774292.970554,,,-43.45703125,-62.98828125,-1000.0,-48.33984375
1770774292.9744136,,,-36.1328125,-60.546875,-1000.0,-33.203125
1770774292.9782734,,,-42.96875,-58.59375,-1000.0,-45.8984375
1770774292.982133,,,-30.2734375,-62.01171875,-1000.0,-67.87109375
1770774292.9859927,,,-48.33984375,-58.59375,-997.0703125,-66.89453125
1770774292.9898522,,,-59.08203125,-62.98828125,-1000.0,-49.31640625
1770774292.993712,,,-32.2265625,-53.22265625,-943.84765625,-29.296875
1770774292.9973407,,,-43.9453125,-54.19921875,-921.38671875,-29.296875
1770774293.0009694,,,-68.84765625,-59.5703125,-1000.0,-52.24609375
1770774293.0045981,,,-22.94921875,-62.5,-902.83203125,-23.92578125
1770774293.0082269,,,-0.48828125,-62.98828125,-707.51953125,-10.25390625
1770774293.0118556,,,-44.921875,-58.59375,-798.33984375,-26.3671875
1770774293.0154846,,,-52.734375,-69.82421875,-1000.0,-38.0859375
1770774293.0191133,,,-26.85546875,-76.66015625,-1000.0,-23.92578125
1770774293.022742,,,-12.6953125,-61.5234375,-770.01953125,15.13671875
1770774293.0263708,,,-1.953125,-47.36328125,-723.14453125,26.3671875
1770774293.0299995,,,-32.71484375,-50.29296875,-1000.0,19.04296875
1770774293.0336282,,,-29.78515625,-37.59765625,-696.77734375,-29.78515625
1770774293.037257,,,0.48828125,-40.0390625,-280.2734375,-33.203125
1770774293.0427155,,,1.46484375,-75.68359375,-375.48828125,15.625
1770774293.048174,,,-29.78515625,-76.66015625,-339.35546875,-4.39453125
1770774293.0536325,,,-77.63671875,-57.6171875,-109.375,-28.80859375
1770774293.0590909,,,-34.66796875,-57.12890625,-71.77734375,15.625
1770774293.0645494,,,-2.9296875,-60.546875,-213.37890625,12.20703125
1770774293.0700078,,,-41.50390625,-59.08203125,-312.98828125,-13.671875
1770774293.0754664,,,-45.8984375,-44.921875,-229.00390625,-38.0859375
1770774293.080925,,,-16.6015625,-41.9921875,23.4375,1.953125
1770774293.0863833,,,-12.6953125,-71.77734375,-430.17578125,28.80859375
1770774293.091842,,,-31.73828125,-76.171875,-429.6875,-17.578125
1770774293.0973003,,,-30.76171875,-68.359375,102.05078125,-17.08984375
1770774293.102759,,,-36.1328125,-46.875,-0.9765625,-24.90234375
1770774293.1047876,,,-43.45703125,-45.8984375,-67.3828125,-40.52734375
1770774293.1068163,,,-23.4375,-46.38671875,185.546875,-15.13671875
1770774293.108845,,,-26.85546875,-38.0859375,435.05859375,-14.6484375
1770774293.1108737,,,-77.63671875,-58.59375,171.38671875,-66.89453125
1770774293.1129024,,,-51.7578125,-51.7578125,-3.90625,-52.734375
1770774293.1149309,,,-57.12890625,-44.43359375,102.5390625,-44.43359375
1770774293.1169596,,,-81.0546875,-49.31640625,304.6875,-58.10546875
1770774293.1189883,,,-68.359375,-50.29296875,166.50390625,-63.96484375
1770774293.121017,,,-47.36328125,-55.6640625,-170.41015625,-65.4296875
1770774293.1230457,,,-6.34765625,-46.875,417.96875,-39.0625
1770774293.1250744,,,-44.921875,-39.55078125,702.1484375,-39.55078125
1770774293.127103,,,-77.1484375,-43.9453125,323.2421875,-76.171875
1770774293.1308784,,,-66.40625,-36.1328125,304.6875,-81.54296875
1770774293.134654,,,-59.5703125,-31.73828125,556.15234375,-62.01171875
1770774293.1384294,,,-60.546875,-35.15625,454.58984375,-60.05859375
1770774293.1422048,,,-67.87109375,-60.546875,131.8359375,-59.08203125
1770774293.1459801,,,-41.015625,-68.84765625,232.421875,-62.01171875
1770774293.1497555,,,-13.671875,-51.7578125,563.96484375,-39.0625
1770774293.153531,,,-12.20703125,-46.38671875,651.3671875,-27.83203125
1770774293.1573064,,,-20.01953125,-36.1328125,270.01953125,-42.96875
1770774293.1610818,,,-50.29296875,-31.25,298.828125,-34.1796875
1770774293.1648574,,,-69.82421875,-57.12890625,984.375,-59.5703125
1770774293.1686327,,,-30.2734375,-33.203125,962.890625,-41.015625
1770774293.172408,,,-11.71875,-7.8125,917.96875,-33.69140625
1770774293.176101,,,-34.66796875,-15.13671875,955.078125,-82.03125
1770774293.1797938,,,-9.765625,-35.64453125,988.76953125,-74.21875
1770774293.1834867,,,13.18359375,-49.8046875,912.59765625,-22.4609375
1770774293.1871798,,,-43.45703125,-34.1796875,862.3046875,-5.37109375
1770774293.1908727,,,-43.9453125,-27.34375,949.70703125,-21.484375
1770774293.1945655,,,-4.39453125,-22.94921875,912.59765625,-38.0859375
1770774293.1982584,,,-14.16015625,-27.83203125,649.90234375,-32.71484375
1770774293.2019513,,,-22.94921875,-44.43359375,78.125,-63.4765625
1770774293.2056441,,,-45.8984375,-20.99609375,521.484375,-93.75
1770774293.2093372,,,-73.73046875,-1.953125,999.51171875,-102.5390625
1770774293.21303,,,-42.96875,-24.4140625,862.79296875,-92.28515625
1770774293.216723,,,-24.4140625,-41.50390625,904.78515625,-77.1484375
1770774293.2217264,,,-55.6640625,-44.43359375,979.4921875,-81.54296875
1770774293.2267299,,,-77.63671875,-38.57421875,975.09765625,-77.1484375
1770774293.231733,,,-49.31640625,-38.0859375,880.37109375,-74.70703125
1770774293.2367365,,,-42.48046875,-18.06640625,889.6484375,-68.359375
1770774293.24174,,,-56.15234375,-8.7890625,964.84375,-57.6171875
1770774293.2467434,,,-38.57421875,-32.71484375,819.3359375,-72.265625
1770774293.251747,,,-56.15234375,-33.203125,237.79296875,-55.17578125
1770774293.2567503,,,-40.0390625,7.32421875,280.76171875,-41.50390625
1770774293.2617536,,,-22.4609375,-6.8359375,892.578125,-32.2265625
1770774293.266757,,,-69.3359375,3.90625,657.2265625,-50.78125
1770774293.2717605,,,-80.078125,6.34765625,360.3515625,-68.359375
1770774293.276764,,,-40.0390625,-43.45703125,597.16796875,-34.1796875
1770774293.2804399,,,-37.109375,-22.94921875,892.578125,-33.69140625
1770774293.2841158,,,-70.3125,-25.87890625,639.16015625,-64.94140625
1770774293.2877917,,,-69.3359375,-28.80859375,382.8125,-69.82421875
1770774293.2914677,,,-3.41796875,-20.99609375,625.48828125,-42.48046875
1770774293.2951436,,,-20.5078125,-15.625,744.140625,-58.10546875
1770774293.2988193,,,-51.26953125,-40.52734375,267.08984375,-65.4296875
1770774293.3024952,,,-38.57421875,-39.55078125,-4.39453125,-60.05859375
1770774293.3061712,,,-23.4375,-5.37109375,411.62109375,-63.4765625
1770774293.309847,,,-14.16015625,-13.18359375,693.359375,-33.69140625
1770774293.313523,,,-32.71484375,0.0,272.94921875,-55.17578125
1770774293.317199,,,-67.3828125,0.0,-264.6484375,-83.0078125
1770774293.320875,,,-47.8515625,-23.4375,290.52734375,-53.22265625
1770774293.3247743,,,-19.53125,-26.3671875,514.16015625,-32.2265625
1770774293.3286736,,,-34.1796875,-42.96875,-35.15625,-40.0390625
1770774293.332573,,,-43.9453125,-39.0625,-8.7890625,-67.3828125
1770774293.3364723,,,-41.9921875,-31.73828125,461.42578125,-83.0078125
1770774293.3403716,,,-10.25390625,-44.921875,476.5625,-44.43359375
1770774293.344271,,,-14.6484375,-54.6875,180.17578125,-35.15625
1770774293.3481703,,,-54.19921875,-55.6640625,31.25,-45.41015625
1770774293.3520696,,,-63.4765625,-20.99609375,263.18359375,-85.44921875
1770774293.355969,,,-41.9921875,-2.44140625,343.26171875,-78.61328125
1770774293.3598683,,,-36.1328125,-39.55078125,-169.43359375,-20.01953125
1770774293.3637676,,,-38.0859375,-35.64453125,-177.734375,-14.6484375
1770774293.367667,,,-42.48046875,-24.4140625,333.0078125,-50.78125
1770774293.371348,,,-15.625,-21.484375,221.19140625,-39.55078125
1770774293.375029,,,-17.08984375,-38.0859375,67.3828125,-16.6015625
1770774293.37871,,,-30.76171875,-34.66796875,182.6171875,-50.29296875
1770774293.382391,,,-35.15625,-34.1796875,256.8359375,-49.8046875
1770774293.386072,,,-25.87890625,-44.921875,-52.24609375,-31.73828125
1770774293.3897529,,,-5.37109375,-58.59375,-487.79296875,0.0
1770774293.393434,,,-35.15625,-49.31640625,-155.76171875,7.32421875
1770774293.397115,,,-69.3359375,-37.109375,333.49609375,-54.6875
1770774293.400796,,,-36.62109375,-39.55078125,-54.19921875,-35.15625
1770774293.4044771,,,6.34765625,-22.4609375,-439.453125,-5.37109375
1770774293.408158,,,-15.13671875,-31.25,94.7265625,-40.52734375
1770774293.411839,,,-36.62109375,-46.875,247.55859375,-55.6640625
1770774293.4156108,,,-36.1328125,-42.96875,-54.6875,-46.875
1770774293.4193826,,,-36.1328125,-38.0859375,-49.8046875,-41.9921875
1770774293.4231544,,,-44.921875,-37.109375,178.7109375,-52.24609375
1770774293.426926,,,-31.25,-34.1796875,205.56640625,-62.01171875
1770774293.4306977,,,-33.203125,-33.203125,-17.578125,-37.59765625
1770774293.4344695,,,-50.78125,-21.97265625,-240.72265625,-27.83203125
1770774293.4382412,,,-38.57421875,-26.3671875,-172.36328125,-46.38671875
1770774293.442013,,,-17.578125,-33.69140625,52.734375,-40.52734375
1770774293.4457848,,,-39.0625,-37.109375,-547.36328125,-32.71484375
1770774293.4495564,,,-60.546875,-24.4140625,-777.83203125,-67.87109375
1770774293.4533281,,,-38.57421875,-6.8359375,80.078125,-57.12890625
1770774293.4571,,,-41.50390625,-33.203125,130.37109375,-31.73828125
1770774293.4608192,,,-55.6640625,-53.7109375,-217.7734375,-40.52734375
1770774293.4645388,,,-43.9453125,-49.31640625,-14.6484375,-50.29296875
1770774293.4682581,,,-23.4375,-40.52734375,218.26171875,-31.25
1770774293.4719777,,,-29.296875,-36.1328125,39.0625,-28.80859375
1770774293.475697,,,-74.70703125,-19.53125,-103.515625,-66.89453125
1770774293.4794164,,,-70.3125,-23.92578125,-106.4453125,-85.9375
1770774293.483136,,,-21.97265625,-34.1796875,-134.765625,-43.9453125
1770774293.4868553,,,-19.04296875,-43.45703125,-303.22265625,-9.27734375
1770774293.4905748,,,-29.296875,-46.38671875,-631.34765625,-34.66796875
1770774293.4942942,,,-48.828125,-32.2265625,-188.96484375,-67.87109375
1770774293.4980137,,,-56.15234375,-16.6015625,180.17578125,-41.9921875
1770774293.501733,,,-9.27734375,-21.484375,-154.296875,-3.41796875
1770774293.5055444,,,-27.34375,-48.33984375,-175.29296875,-19.04296875
1770774293.509356,,,-79.1015625,-36.1328125,84.47265625,-63.4765625
1770774293.5131674,,,-32.71484375,-31.73828125,53.22265625,-50.78125
1770774293.5169787,,,-13.671875,-47.36328125,-164.55078125,-12.20703125
1770774293.52079,,,-49.8046875,-45.8984375,-126.953125,-26.3671875
1770774293.5246015,,,-68.84765625,-18.5546875,-104.00390625,-70.3125
1770774293.528413,,,-67.87109375,-24.4140625,-254.39453125,-78.61328125
1770774293.5322244,,,-17.08984375,-48.33984375,-651.85546875,-38.0859375
1770774293.5360358,,,0.9765625,-34.1796875,-658.69140625,-25.87890625
1770774293.5398474,,,-8.30078125,-27.34375,-65.91796875,-48.828125
1770774293.5436587,,,-39.0625,-29.296875,-189.453125,-73.2421875
1770774293.54747,,,-48.33984375,-21.97265625,-404.296875,-61.5234375
1770774293.5512168,,,-20.01953125,-22.4609375,-279.296875,-26.3671875
1770774293.5549638,,,-47.36328125,-25.390625,-200.1953125,-41.50390625
1770774293.5587106,,,-66.40625,-32.71484375,-504.39453125,-77.1484375
1770774293.5624573,,,-26.85546875,-44.43359375,-824.21875,-57.12890625
1770774293.5662043,,,-7.32421875,-34.66796875,-622.0703125,-29.78515625
1770774293.569951,,,-26.3671875,-23.4375,-631.8359375,-47.8515625
1770774293.5736978,,,-55.17578125,-31.25,-894.53125,-43.9453125
1770774293.5774448,,,-52.24609375,-39.55078125,-1000.0,-24.90234375
1770774293.5811915,,,-24.4140625,-33.203125,-734.86328125,-39.55078125
1770774293.5849383,,,-21.484375,-15.625,-508.7890625,-31.25
1770774293.5886853,,,-33.203125,-30.2734375,-802.24609375,-23.4375
1770774293.592432,,,-44.921875,-50.29296875,-956.0546875,-26.3671875
1770774293.5972402,,,-20.5078125,-40.0390625,-830.078125,-22.94921875
1770774293.6020484,,,-23.4375,-42.96875,-845.21484375,-21.484375
1770774293.6068568,,,-65.4296875,-43.45703125,-964.35546875,-43.9453125
1770774293.611665,,,-64.453125,-38.0859375,-986.81640625,-57.12890625
1770774293.6164732,,,-45.8984375,-40.52734375,-945.80078125,-45.8984375
1770774293.6212816,,,-17.578125,-42.48046875,-992.1875,-33.203125
1770774293.6260898,,,-16.11328125,-49.31640625,-1000.0,-10.25390625
1770774293.630898,,,-28.3203125,-49.31640625,-1000.0,-26.3671875
1770774293.6357062,,,-47.36328125,-36.62109375,-956.0546875,-33.69140625
1770774293.6405144,,,-24.90234375,-47.36328125,-932.12890625,-14.6484375
1770774293.6453228,,,-0.48828125,-53.22265625,-1000.0,-25.390625
1770774293.650131,,,-49.31640625,-53.22265625,-979.98046875,-37.109375
1770774293.6539772,,,-62.01171875,-62.01171875,-904.78515625,-26.85546875
1770774293.6578236,,,-57.6171875,-56.640625,-944.82421875,2.9296875
1770774293.6616697,,,-40.52734375,-62.98828125,-971.19140625,-7.32421875
1770774293.665516,,,-20.99609375,-60.05859375,-872.55859375,-33.69140625
1770774293.6693623,,,-53.22265625,-40.52734375,-854.4921875,-53.22265625
1770774293.6732085,,,-34.1796875,-65.91796875,-970.21484375,-38.0859375
1770774293.6770546,,,-27.83203125,-78.61328125,-969.23828125,-11.71875
1770774293.680901,,,-17.578125,-57.12890625,-728.02734375,-38.0859375
1770774293.6847472,,,-27.34375,-56.15234375,-562.5,-56.15234375
1770774293.6885934,,,-33.203125,-64.94140625,-794.921875,-27.34375
1770774293.6924398,,,-36.62109375,-67.87109375,-907.71484375,-14.6484375
1770774293.696286,,,-64.453125,-63.4765625,-586.42578125,-25.87890625
1770774293.7001915,,,-68.84765625,-82.51953125,-460.9375,-36.1328125
1770774293.704097,,,-50.78125,-106.93359375,-769.53125,-31.73828125
1770774293.7080026,,,-23.92578125,-75.1953125,-779.296875,-19.04296875
1770774293.7119079,,,-36.62109375,-51.7578125,-339.84375,-25.390625
1770774293.7158134,,,-62.5,-52.734375,-297.8515625,-45.41015625
1770774293.719719,,,-55.6640625,-54.6875,-720.21484375,-48.828125
1770774293.7236245,,,-11.23046875,-63.4765625,-714.35546875,-16.11328125
1770774293.72753,,,0.0,-60.05859375,-290.52734375,1.953125
1770774293.7314355,,,-41.015625,-67.3828125,-249.0234375,-28.80859375
1770774293.7353408,,,-47.8515625,-68.84765625,-650.87890625,-38.57421875
1770774293.7392464,,,-25.87890625,-51.26953125,-512.6953125,-18.5546875
1770774293.743152,,,-8.7890625,-56.640625,-16.11328125,-23.4375
1770774293.7468712,,,-29.296875,-67.87109375,-180.6640625,-24.90234375
1770774293.7505906,,,-60.546875,-54.19921875,-509.765625,-34.66796875
1770774293.75431,,,-45.41015625,-57.12890625,-407.71484375,-44.43359375
1770774293.7580292,,,-25.87890625,-63.4765625,-53.22265625,-20.01953125
1770774293.7617486,,,-48.33984375,-62.5,-195.3125,-4.8828125
1770774293.7654681,,,-75.68359375,-58.10546875,-606.93359375,-26.3671875
1770774293.7691875,,,-38.57421875,-49.8046875,-480.95703125,-47.36328125
1770774293.7729068,,,-15.13671875,-42.96875,-18.5546875,-42.48046875
1770774293.776626,,,-22.4609375,-58.10546875,-158.69140625,-5.37109375
1770774293.7803454,,,-39.55078125,-63.96484375,-914.55078125,-5.37109375
1770774293.7840648,,,-50.29296875,-51.26953125,-561.03515625,-38.0859375
1770774293.787784,,,-12.6953125,-50.29296875,126.953125,-33.203125
1770774293.7914505,,,-5.37109375,-51.7578125,-154.78515625,-20.5078125
1770774293.795117,,,-45.8984375,-60.546875,-208.0078125,-40.52734375
1770774293.7987833,,,-60.546875,-55.6640625,121.09375,-48.828125
1770774293.8024497,,,-22.94921875,-32.71484375,96.6796875,-21.97265625
1770774293.806116,,,-10.7421875,-28.80859375,-90.33203125,-36.62109375
1770774293.8097825,,,-52.24609375,-40.52734375,-209.9609375,-45.8984375
1770774293.813449,,,-65.4296875,-56.15234375,-272.94921875,-47.8515625
1770774293.8171153,,,-56.640625,-43.9453125,-135.7421875,-53.7109375
1770774293.8207817,,,-28.3203125,-45.8984375,-548.828125,-36.62109375
1770774293.824448,,,-18.5546875,-62.5,-746.09375,-27.83203125
1770774293.8281145,,,-36.1328125,-45.41015625,51.7578125,-63.96484375
1770774293.831781,,,-45.41015625,-44.43359375,85.9375,-76.171875
1770774293.8355293,,,-34.66796875,-33.203125,-87.40234375,-36.62109375
1770774293.8392777,,,-18.5546875,-32.2265625,147.4609375,-48.33984375
1770774293.8430262,,,-39.55078125,-50.29296875,236.328125,-70.3125
1770774293.8467746,,,-58.59375,-49.8046875,-25.87890625,-81.54296875
1770774293.850523,,,-49.31640625,-50.78125,-82.03125,-68.359375
1770774293.8542714,,,-25.87890625,-33.203125,-55.17578125,-24.4140625
1770774293.8580198,,,-27.34375,-29.296875,29.296875,-33.69140625
1770774293.8617682,,,-47.36328125,-46.38671875,-99.609375,-58.10546875
1770774293.8655167,,,-20.01953125,-55.6640625,-691.40625,-44.921875
1770774293.869265,,,0.0,-44.43359375,-281.73828125,-45.41015625
1770774293.8730135,,,-20.01953125,-48.828125,271.97265625,-43.9453125
1770774293.876762,,,-46.875,-55.17578125,-199.70703125,-41.015625
1770774293.88052,,,-18.06640625,-42.48046875,-337.40234375,-32.2265625
1770774293.8842783,,,-5.37109375,-36.1328125,93.26171875,-19.53125
1770774293.8880365,,,-24.4140625,-42.48046875,90.33203125,-42.96875
1770774293.8917947,,,-51.26953125,-39.55078125,-16.6015625,-70.80078125
1770774293.8955529,,,-44.43359375,-55.6640625,-53.22265625,-52.24609375
1770774293.8993108,,,6.34765625,-56.640625,-113.76953125,-4.8828125
1770774293.903069,,,12.20703125,-53.22265625,-111.81640625,8.30078125
1770774293.9068272,,,-11.71875,-69.3359375,-527.83203125,-10.7421875
1770774293.9105854,,,-24.4140625,-77.1484375,-587.40234375,-18.06640625
1770774293.9143436,,,-6.34765625,-63.96484375,124.51171875,3.41796875
1770774293.9181018,,,6.8359375,-62.01171875,134.27734375,28.3203125
1770774293.92186,,,15.625,-67.3828125,-20.01953125,9.27734375
1770774293.926999,,,-2.44140625,-62.5,-74.70703125,-18.06640625
1770774293.9321382,,,-10.25390625,-73.2421875,120.1171875,19.04296875
1770774293.9372773,,,4.8828125,-78.61328125,129.39453125,37.59765625
1770774293.9424164,,,3.90625,-89.84375,-183.10546875,41.9921875
1770774293.9475555,,,-11.23046875,-77.1484375,-46.875,27.83203125
1770774293.9526947,,,-7.32421875,-75.68359375,-26.3671875,14.6484375
1770774293.9578335,,,17.08984375,-86.42578125,-313.4765625,39.55078125
1770774293.9629726,,,23.4375,-92.7734375,-542.48046875,64.94140625
1770774293.9681118,,,-1.953125,-83.49609375,-62.98828125,20.01953125
1770774293.9732509,,,-20.01953125,-75.68359375,240.234375,-22.4609375
1770774293.97839,,,-14.6484375,-79.58984375,0.9765625,3.90625
1770774293.983529,,,1.46484375,-77.63671875,0.0,23.92578125
1770774293.9874053,,,-0.48828125,-74.21875,233.88671875,1.46484375
1770774293.9912815,,,-32.2265625,-63.4765625,218.75,-37.109375
1770774293.9951575,,,-25.87890625,-48.828125,56.15234375,-43.9453125
1770774293.9990337,,,-19.04296875,-47.36328125,8.7890625,-37.59765625
1770774294.00291,,,-43.45703125,-66.89453125,-46.38671875,-34.1796875
1770774294.0067859,,,-49.31640625,-65.4296875,-72.75390625,-46.38671875
1770774294.010662,,,-22.4609375,-60.546875,-462.890625,-21.484375
1770774294.0145383,,,-20.5078125,-71.2890625,-384.765625,-4.8828125
1770774294.0184145,,,-11.71875,-60.05859375,292.48046875,-29.78515625
1770774294.0222907,,,-30.2734375,-55.6640625,267.08984375,-44.43359375
1770774294.0261667,,,-37.109375,-54.6875,-242.1875,-54.19921875
1770774294.030043,,,4.8828125,-43.9453125,-118.65234375,-28.3203125
1770774294.03361,,,12.20703125,-48.33984375,416.9921875,-20.01953125
1770774294.0371773,,,-16.6015625,-50.29296875,288.57421875,-72.265625
1770774294.0407445,,,-35.15625,-55.6640625,143.06640625,-76.66015625
1770774294.0443115,,,-20.5078125,-49.8046875,347.65625,-32.71484375
1770774294.0478787,,,-13.671875,-33.203125,472.16796875,-30.76171875
1770774294.051446,,,-26.3671875,-43.9453125,88.8671875,-41.015625
1770774294.0550132,,,-59.5703125,-50.29296875,-286.62109375,-63.96484375
1770774294.0585804,,,-53.22265625,-43.9453125,57.6171875,-57.6171875
1770774294.0621476,,,-10.25390625,-47.8515625,478.515625,-21.97265625
1770774294.0657146,,,-15.13671875,-48.828125,226.5625,-31.73828125
1770774294.0692818,,,-39.55078125,-47.8515625,-225.5859375,-21.484375
1770774294.072849,,,-40.52734375,-31.73828125,292.48046875,-11.23046875
1770774294.0766277,,,-21.97265625,-37.109375,541.9921875,-24.90234375
1770774294.0804064,,,-16.6015625,-36.62109375,320.3125,-38.57421875
1770774294.0841851,,,-56.15234375,-31.73828125,308.10546875,-41.015625
1770774294.0879636,,,-50.29296875,-35.15625,482.91015625,-40.52734375
1770774294.0917423,,,-28.80859375,-28.80859375,444.3359375,-36.62109375
1770774294.095521,,,-36.62109375,-41.50390625,100.5859375,-21.484375
1770774294.0992997,,,-43.9453125,-45.8984375,88.8671875,-26.3671875
1770774294.1030784,,,-28.80859375,-38.57421875,412.109375,-41.50390625
1770774294.106857,,,-7.8125,-34.1796875,516.11328125,-34.66796875
1770774294.1106355,,,-26.3671875,-33.69140625,110.83984375,-27.83203125
1770774294.1144142,,,-45.8984375,-27.34375,140.13671875,-47.36328125
1770774294.118193,,,-61.5234375,-10.7421875,431.15234375,-65.91796875
1770774294.1218178,,,-41.50390625,-12.6953125,392.08984375,-57.6171875
1770774294.1254425,,,-11.71875,-24.90234375,280.76171875,-35.15625
1770774294.1290674,,,-26.3671875,-16.11328125,458.49609375,-48.33984375
1770774294.1326923,,,-59.5703125,-9.27734375,670.41015625,-69.3359375
1770774294.136317,,,-41.015625,-25.390625,455.078125,-41.9921875
1770774294.139942,,,-8.7890625,-31.25,166.015625,-27.34375
1770774294.1435668,,,-15.13671875,-18.5546875,307.6171875,-31.25
1770774294.1471915,,,-40.0390625,-30.2734375,671.875,-43.9453125
1770774294.1508164,,,-47.36328125,-46.38671875,349.12109375,-61.03515625
1770774294.1544414,,,-26.3671875,-35.15625,-83.0078125,-45.8984375
1770774294.158066,,,-43.45703125,-20.5078125,473.6328125,-49.8046875
1770774294.161691,,,-65.4296875,-9.765625,784.66796875,-83.0078125
1770774294.165511,,,-53.22265625,-7.32421875,572.265625,-97.16796875
1770774294.169331,,,-42.96875,-9.765625,626.953125,-78.125
1770774294.173151,,,-23.92578125,-16.11328125,690.91796875,-48.33984375
1770774294.176971,,,-23.92578125,-11.23046875,620.1171875,-59.08203125
1770774294.180791,,,-33.203125,-8.30078125,359.375,-76.171875
1770774294.1846108,,,-41.9921875,-15.13671875,148.4375,-86.42578125
1770774294.188431,,,-62.01171875,-20.01953125,520.99609375,-107.421875
1770774294.192251,,,-74.70703125,-10.25390625,776.85546875,-112.79296875
1770774294.196071,,,-113.28125,-4.39453125,120.60546875,-135.7421875
1770774294.199891,,,-100.09765625,-6.34765625,-68.84765625,-150.87890625
1770774294.203711,,,-88.8671875,11.71875,565.91796875,-153.3203125
1770774294.207531,,,-124.51171875,13.18359375,554.6875,-159.66796875
1770774294.2123785,,,-147.94921875,-14.16015625,399.90234375,-191.40625
1770774294.2172258,,,-165.52734375,-24.90234375,513.18359375,-226.07421875
1770774294.2220733,,,-128.90625,-25.87890625,647.4609375,-194.3359375
1770774294.2269206,,,-113.28125,2.9296875,504.8828125,-163.0859375
1770774294.2317681,,,-134.765625,31.73828125,314.94140625,-154.78515625
1770774294.2366154,,,-152.83203125,8.7890625,244.62890625,-135.7421875
1770774294.241463,,,-119.140625,-5.37109375,263.671875,-102.5390625
1770774294.2463105,,,-90.33203125,3.90625,159.66796875,-53.7109375
1770774294.2511578,,,-118.65234375,-2.9296875,-420.41015625,-72.75390625
1770774294.2560053,,,-132.8125,-5.859375,-74.70703125,-102.5390625
1770774294.2608526,,,-97.65625,-0.48828125,539.55078125,-42.96875
1770774294.2657,,,-73.73046875,-13.18359375,318.359375,-13.18359375
1770774294.2706892,,,-97.16796875,-19.53125,329.58984375,-38.0859375
1770774294.2756784,,,-113.76953125,0.9765625,512.20703125,-60.05859375
1770774294.2806675,,,-89.35546875,5.37109375,440.4296875,-43.9453125
1770774294.2856567,,,-51.26953125,-4.8828125,249.0234375,-36.1328125
1770774294.2906458,,,-52.734375,-15.13671875,287.59765625,-44.921875
1770774294.295635,,,-75.68359375,-14.16015625,208.984375,-50.78125
1770774294.3006244,,,-84.9609375,-8.30078125,120.1171875,-62.5
1770774294.3056135,,,-52.734375,-16.6015625,-289.0625,-42.48046875
1770774294.3106027,,,-48.828125,-19.53125,-271.484375,-32.2265625
1770774294.3155918,,,-59.08203125,-11.23046875,261.71875,-52.734375
1770774294.320581,,,-51.26953125,-14.16015625,49.31640625,-69.3359375
1770774294.32557,,,-58.10546875,-10.25390625,-202.63671875,-74.21875
1770774294.3269188,,,-49.31640625,-6.8359375,54.19921875,-68.84765625
1770774294.3282676,,,-29.78515625,-31.73828125,462.890625,-71.77734375
1770774294.3296163,,,-59.08203125,-37.59765625,197.75390625,-77.1484375
1770774294.330965,,,-64.453125,-19.04296875,80.56640625,-70.80078125
1770774294.3323138,,,-24.4140625,-20.5078125,283.69140625,-42.96875
1770774294.3336625,,,-44.43359375,-22.94921875,140.13671875,-46.875
1770774294.3350112,,,-69.3359375,-25.390625,-207.51953125,-85.9375
1770774294.33636,,,-68.359375,-26.85546875,-457.51953125,-87.40234375
1770774294.3377087,,,-28.3203125,-8.30078125,5.37109375,-47.36328125
1770774294.3390574,,,-21.484375,-8.7890625,336.9140625,-11.23046875
1770774294.3404062,,,-51.26953125,-33.203125,-111.81640625,-20.01953125
1770774294.341755,,,-33.203125,-31.25,-270.01953125,-40.52734375
1770774294.3466215,,,-7.32421875,-18.5546875,114.2578125,-28.80859375
1770774294.3514884,,,-17.08984375,-25.87890625,62.5,-41.9921875
1770774294.356355,,,-48.828125,-35.64453125,-500.9765625,-53.7109375
1770774294.3612216,,,-61.5234375,-32.2265625,-559.5703125,-29.78515625
1770774294.3660884,,,-58.59375,-20.99609375,46.875,-46.38671875
1770774294.370955,,,-34.66796875,-24.90234375,25.87890625,-39.0625
1770774294.3758216,,,-39.0625,-32.2265625,-577.1484375,-24.90234375
1770774294.3806884,,,-62.98828125,-27.34375,-553.7109375,-57.12890625
1770774294.385555,,,-49.31640625,-24.90234375,169.921875,-54.6875
1770774294.3904216,,,-42.48046875,-27.34375,188.4765625,-44.921875
1770774294.3952885,,,-43.9453125,-39.55078125,38.57421875,-32.71484375
1770774294.400155,,,-59.5703125,-55.6640625,125.0,-41.015625
1770774294.4039896,,,-54.19921875,-43.9453125,231.4453125,-61.03515625
1770774294.4078238,,,-21.484375,-32.71484375,111.328125,-25.390625
1770774294.4116583,,,-12.20703125,-31.25,17.578125,-12.20703125
1770774294.4154928,,,-60.546875,-42.96875,103.02734375,-35.15625
1770774294.419327,,,-76.171875,-48.828125,7.8125,-56.640625
1770774294.4231615,,,-48.828125,-49.8046875,-199.21875,-52.734375
1770774294.426996,,,-41.015625,-66.40625,-692.87109375,-25.390625
1770774294.4308302,,,-41.9921875,-62.5,-279.78515625,-54.19921875
1770774294.4346647,,,-61.5234375,-45.41015625,317.3828125,-68.359375
1770774294.4384992,,,-53.22265625,-59.08203125,-15.625,-22.94921875
1770774294.4423335,,,-36.1328125,-49.8046875,-42.48046875,-17.578125
1770774294.446168,,,-46.875,-21.484375,338.8671875,-29.78515625
1770774294.4511182,,,-72.75390625,-25.87890625,347.16796875,-24.90234375
1770774294.4560685,,,-50.29296875,-33.69140625,74.70703125,-32.2265625
1770774294.461019,,,-9.27734375,-28.80859375,149.4140625,-28.80859375
1770774294.4659693,,,14.16015625,-20.99609375,505.37109375,-0.9765625
1770774294.4709196,,,-8.7890625,-24.4140625,510.7421875,-7.32421875
1770774294.4758701,,,-35.64453125,-35.15625,99.609375,-39.0625
1770774294.4808204,,,-10.25390625,-29.296875,72.75390625,-27.83203125
1770774294.4857707,,,0.9765625,-29.296875,408.203125,-6.8359375
1770774294.490721,,,-28.3203125,-39.55078125,374.0234375,-16.11328125
1770774294.4956713,,,-51.26953125,-51.26953125,-348.6328125,-34.66796875
1770774294.5006218,,,-32.2265625,-53.7109375,-345.703125,-47.36328125
1770774294.505572,,,-9.27734375,-20.5078125,553.22265625,-49.8046875
1770774294.5081692,,,-20.99609375,-16.6015625,482.421875,-41.50390625
1770774294.510766,,,-47.8515625,-30.76171875,237.3046875,-45.8984375
1770774294.5133631,,,-37.109375,-33.69140625,400.87890625,-44.43359375
1770774294.51596,,,-36.62109375,-25.87890625,524.4140625,-40.52734375
1770774294.518557,,,-29.296875,-28.80859375,321.77734375,-36.1328125
1770774294.5211542,,,-36.1328125,-37.59765625,-71.77734375,-42.96875
1770774294.523751,,,-32.2265625,-46.875,-11.23046875,-47.8515625
1770774294.526348,,,-12.20703125,-46.38671875,356.93359375,-27.83203125
1770774294.528945,,,-41.9921875,-61.5234375,48.33984375,-17.578125
1770774294.531542,,,-70.3125,-64.94140625,-422.8515625,-49.8046875
1770774294.534139,,,-75.68359375,-32.2265625,21.484375,-78.61328125
1770774294.536736,,,-50.29296875,-33.203125,261.23046875,-47.8515625
1770774294.5416708,,,-38.0859375,-59.5703125,-328.125,-9.765625
1770774294.5466056,,,-45.41015625,-46.875,-528.3203125,-25.390625
1770774294.5515401,,,-41.015625,-24.4140625,32.71484375,-55.17578125
1770774294.556475,,,-23.92578125,-30.76171875,81.0546875,-51.26953125
1770774294.5614097,,,-16.11328125,-35.15625,-134.27734375,-35.64453125
1770774294.5663445,,,-44.43359375,-38.57421875,-307.12890625,-42.96875
1770774294.5712793,,,-60.05859375,-43.45703125,-311.03515625,-65.4296875
1770774294.576214,,,-41.50390625,-47.36328125,-120.60546875,-42.48046875
1770774294.5811486,,,-27.83203125,-65.91796875,-573.73046875,0.48828125
1770774294.5860834,,,-26.85546875,-57.12890625,-708.984375,-9.765625
1770774294.5910182,,,-66.89453125,-32.71484375,-120.1171875,-38.57421875
1770774294.595953,,,-85.9375,-29.296875,-225.09765625,-61.5234375
1770774294.5986161,,,-32.71484375,-26.85546875,-384.765625,-59.08203125
1770774294.6012793,,,-35.15625,-30.76171875,-196.77734375,-21.97265625
1770774294.6039424,,,-65.4296875,-40.0390625,-79.1015625,-30.76171875
1770774294.6066058,,,-71.77734375,-49.8046875,-352.05078125,-58.59375
1770774294.609269,,,-49.8046875,-61.5234375,-542.48046875,-61.03515625
1770774294.611932,,,-18.06640625,-62.01171875,-437.98828125,-35.64453125
1770774294.6145952,,,-38.57421875,-39.55078125,-320.80078125,-52.734375
1770774294.6172583,,,-70.80078125,-47.8515625,-459.9609375,-78.61328125
1770774294.6199214,,,-55.6640625,-61.5234375,-762.6953125,-63.4765625
1770774294.6225848,,,-26.3671875,-26.3671875,-380.859375,-44.43359375
1770774294.625248,,,-38.57421875,-21.97265625,-112.79296875,-32.71484375
1770774294.627911,,,-64.453125,-56.640625,-535.15625,-55.6640625
1770774294.6316466,,,-31.25,-61.5234375,-721.19140625,-55.17578125
1770774294.6353824,,,-21.484375,-50.78125,-195.3125,-32.71484375
1770774294.6391182,,,-27.34375,-48.33984375,-79.58984375,-32.71484375
1770774294.6428537,,,-33.69140625,-32.71484375,-310.546875,-39.0625
1770774294.6465893,,,-48.828125,-30.2734375,-362.79296875,-54.19921875
1770774294.650325,,,-37.59765625,-39.55078125,-405.2734375,-48.33984375
1770774294.6540608,,,-28.3203125,-48.33984375,-454.1015625,-33.203125
1770774294.6577964,,,-45.8984375,-81.0546875,-736.81640625,-40.52734375
1770774294.661532,,,-62.98828125,-70.80078125,-843.75,-69.3359375
1770774294.6652677,,,-49.8046875,-45.8984375,-196.77734375,-68.84765625
1770774294.6690035,,,-26.85546875,-52.24609375,-91.30859375,-27.83203125
1770774294.672739,,,-45.8984375,-49.31640625,-312.98828125,-45.8984375
1770774294.6765475,,,-65.91796875,-71.2890625,-193.359375,-82.03125
1770774294.6803558,,,-39.55078125,-69.3359375,-34.66796875,-63.4765625
1770774294.6841643,,,-37.109375,-43.45703125,-181.640625,-58.10546875
1770774294.6879728,,,-52.734375,-31.73828125,-292.96875,-54.19921875
1770774294.691781,,,-90.33203125,-27.83203125,-167.48046875,-82.03125
1770774294.6955895,,,-101.07421875,-34.1796875,-264.6484375,-109.375
1770774294.699398,,,-53.7109375,-37.109375,-526.3671875,-71.77734375
1770774294.7032063,,,-51.7578125,-63.4765625,-775.87890625,-64.453125
1770774294.7070148,,,-94.23828125,-81.54296875,-332.03125,-106.93359375
1770774294.7108233,,,-100.09765625,-50.78125,25.87890625,-132.32421875
1770774294.7146316,,,-81.54296875,-55.6640625,-329.1015625,-111.81640625
1770774294.71844,,,-47.8515625,-64.94140625,-370.1171875,-102.5390625
1770774294.7222877,,,-58.59375,-38.0859375,45.8984375,-99.12109375
1770774294.726135,,,-95.21484375,-39.55078125,82.03125,-109.375
1770774294.7299826,,,-73.73046875,-53.22265625,-206.0546875,-97.16796875
1770774294.73383,,,-32.71484375,-62.98828125,-176.26953125,-64.453125
1770774294.7376776,,,-45.8984375,-64.453125,60.546875,-68.359375
1770774294.7415252,,,-90.8203125,-44.43359375,-113.76953125,-117.1875
1770774294.7453725,,,-72.265625,-62.98828125,-679.6875,-101.07421875
1770774294.7492201,,,-46.38671875,-63.4765625,-652.83203125,-50.29296875
1770774294.7530675,,,-33.203125,-35.15625,65.91796875,-46.38671875
1770774294.756915,,,-35.64453125,-41.015625,57.6171875,-41.9921875
1770774294.7607625,,,-51.26953125,-47.8515625,-146.484375,-74.70703125
1770774294.76461,,,-27.83203125,-43.9453125,1.953125,-44.43359375
1770774294.7693007,,,-10.25390625,-44.921875,171.38671875,-3.90625
1770774294.7739913,,,-27.34375,-57.6171875,45.8984375,-28.3203125
1770774294.778682,,,-59.5703125,-68.359375,-249.0234375,-37.109375
1770774294.7833726,,,-23.92578125,-65.91796875,-80.078125,-46.875
1770774294.7880633,,,6.34765625,-42.96875,174.8046875,-38.0859375
1770774294.792754,,,-30.76171875,-49.8046875,-91.796875,-21.97265625
1770774294.7974448,,,-69.82421875,-86.42578125,-848.14453125,-51.7578125
1770774294.8021355,,,-51.7578125,-83.49609375,-484.375,-54.6875
1770774294.806826,,,-38.57421875,-42.96875,324.21875,-44.43359375
1770774294.8115168,,,-16.11328125,-35.15625,91.30859375,-31.73828125
1770774294.8162074,,,-38.57421875,-34.1796875,24.4140625,-27.83203125
1770774294.820898,,,-44.921875,-37.109375,253.41796875,-49.31640625
1770774294.825882,,,0.9765625,-46.38671875,324.70703125,-25.87890625
1770774294.830866,,,-24.90234375,-57.12890625,165.52734375,-13.671875
1770774294.83585,,,-35.15625,-54.19921875,123.046875,-30.76171875
1770774294.8408341,,,-22.94921875,-34.1796875,237.79296875,-38.0859375
1770774294.845818,,,-20.5078125,-37.59765625,125.48828125,-32.71484375
1770774294.8508022,,,-13.18359375,-51.7578125,-107.421875,-8.30078125
1770774294.855786,,,-41.50390625,-49.31640625,-197.265625,-39.0625
1770774294.86077,,,-60.05859375,-35.64453125,-59.08203125,-63.4765625
1770774294.8657541,,,-18.5546875,-45.41015625,256.8359375,-32.71484375
1770774294.870738,,,-20.5078125,-75.68359375,-334.9609375,2.44140625
1770774294.8757222,,,-52.24609375,-66.40625,-581.54296875,-12.6953125
1770774294.880706,,,-51.7578125,-41.9921875,207.51953125,-34.66796875
1770774294.8832943,,,-22.94921875,-39.0625,181.640625,-33.203125
1770774294.8858826,,,-7.8125,-44.921875,-2.44140625,-26.3671875
1770774294.888471,,,-39.0625,-40.52734375,121.58203125,-14.16015625
1770774294.8910592,,,-80.56640625,-27.83203125,193.84765625,-50.78125
1770774294.8936474,,,-54.6875,-29.296875,10.7421875,-61.03515625
1770774294.8962355,,,-12.20703125,-46.875,-291.9921875,-23.92578125
1770774294.8988237,,,-45.41015625,-56.640625,-200.68359375,-39.55078125
1770774294.901412,,,-42.96875,-45.8984375,135.25390625,-64.453125
1770774294.9040003,,,-24.90234375,-49.31640625,-157.2265625,-28.80859375
1770774294.9065886,,,-26.3671875,-51.7578125,-654.296875,-5.859375
1770774294.9091768,,,-23.92578125,-40.52734375,-139.16015625,-31.25
1770774294.911765,,,-35.15625,-41.50390625,314.453125,-52.24609375
1770774294.9155169,,,-66.40625,-58.59375,-262.6953125,-38.57421875
1770774294.9192684,,,-68.359375,-56.640625,-570.3125,-34.66796875
1770774294.9230201,,,-48.33984375,-48.828125,64.453125,-40.52734375
1770774294.9267716,,,-51.7578125,-77.1484375,189.453125,-36.1328125
1770774294.9305234,,,-70.3125,-88.8671875,-68.84765625,-66.89453125
1770774294.9342752,,,-67.87109375,-74.21875,-252.44140625,-48.828125
1770774294.9380267,,,-36.1328125,-61.5234375,-187.98828125,-12.6953125
1770774294.9417784,,,-26.85546875,-51.7578125,108.3984375,-22.4609375
1770774294.94553,,,-51.26953125,-45.8984375,-417.96875,-33.203125
1770774294.9492817,,,-41.50390625,-54.19921875,-588.37890625,-32.2265625
1770774294.9530332,,,-26.3671875,-55.6640625,125.9765625,-22.94921875
1770774294.956785,,,-29.78515625,-52.734375,64.453125,-7.8125
1770774294.960663,,,-53.7109375,-52.24609375,-168.9453125,-36.1328125
1770774294.9645412,,,-49.8046875,-46.38671875,-128.41796875,-41.9921875
1770774294.9684193,,,-23.92578125,-41.015625,126.46484375,-18.06640625
1770774294.9722972,,,-38.0859375,-45.8984375,55.6640625,-13.18359375
1770774294.9761753,,,-56.640625,-51.26953125,-336.9140625,-23.4375
1770774294.9800534,,,-71.2890625,-61.03515625,-375.48828125,-44.921875
1770774294.9839315,,,-71.2890625,-54.19921875,-66.89453125,-53.7109375
1770774294.9878097,,,-74.70703125,-53.22265625,-113.76953125,-46.38671875
1770774294.9916878,,,-105.46875,-73.73046875,-590.8203125,-58.10546875
1770774294.9955657,,,-144.04296875,-64.453125,-220.703125,-114.2578125
1770774294.9994438,,,-135.7421875,-60.546875,108.88671875,-139.6484375
1770774295.003322,,,-144.53125,-70.3125,-142.08984375,-127.44140625
1770774295.007136,,,-208.0078125,-65.91796875,-139.16015625,-177.734375
1770774295.0109503,,,-266.6015625,-64.94140625,35.64453125,-253.41796875
1770774295.0147645,,,-290.52734375,-79.1015625,-27.83203125,-270.99609375
1770774295.0185785,,,-305.6640625,-84.47265625,-185.546875,-290.0390625
1770774295.0223927,,,-325.68359375,-87.40234375,-269.53125,-323.2421875
1770774295.026207,,,-361.81640625,-83.984375,-374.0234375,-336.42578125
1770774295.0300212,,,-370.1171875,-88.8671875,-350.09765625,-347.16796875
1770774295.0338354,,,-352.5390625,-113.28125,-655.76171875,-325.1953125
1770774295.0376496,,,-344.23828125,-111.328125,-805.17578125,-297.36328125
1770774295.0414636,,,-333.984375,-106.4453125,-182.12890625,-306.640625
1770774295.0452778,,,-327.63671875,-93.26171875,-271.97265625,-301.7578125
1770774295.049092,,,-305.6640625,-73.73046875,-389.16015625,-268.06640625
1770774295.0539503,,,-282.71484375,-65.4296875,-92.28515625,-253.90625
1770774295.0588083,,,-243.65234375,-61.03515625,51.7578125,-219.23828125
1770774295.0636666,,,-226.5625,-78.125,-145.5078125,-214.35546875
1770774295.0685246,,,-199.21875,-73.73046875,-304.19921875,-190.91796875
1770774295.0733829,,,-138.671875,-54.19921875,-120.1171875,-124.0234375
1770774295.0782409,,,-109.375,-60.546875,-231.4453125,-120.60546875
1770774295.0830991,,,-118.65234375,-61.5234375,-528.80859375,-112.79296875
1770774295.0879574,,,-112.3046875,-63.4765625,-763.671875,-95.703125
1770774295.0928154,,,-65.4296875,-58.59375,-526.85546875,-73.2421875
1770774295.0976737,,,-54.19921875,-20.99609375,-23.4375,-60.05859375
1770774295.1025317,,,-51.7578125,-43.9453125,-296.875,-36.1328125
1770774295.10739,,,-17.578125,-40.52734375,-538.57421875,-2.44140625
1770774295.1100168,,,18.06640625,-13.671875,-18.5546875,4.39453125
1770774295.1126437,,,46.875,-27.83203125,82.03125,17.578125
1770774295.1152706,,,39.0625,-30.76171875,-187.98828125,16.6015625
1770774295.1178975,,,10.7421875,-36.62109375,-221.19140625,14.6484375
1770774295.1205244,,,31.73828125,-47.8515625,-90.33203125,37.109375
1770774295.1231515,,,53.22265625,-59.5703125,-224.12109375,62.01171875
1770774295.1257784,,,49.8046875,-62.01171875,-669.921875,60.546875
1770774295.1284053,,,36.62109375,-51.7578125,-621.09375,47.36328125
1770774295.1310322,,,62.01171875,-17.578125,24.4140625,66.40625
1770774295.1336591,,,88.37890625,3.41796875,32.2265625,94.7265625
1770774295.136286,,,71.2890625,1.953125,-190.4296875,101.5625
1770774295.138913,,,78.61328125,-23.4375,-245.1171875,69.3359375
1770774295.143819,,,84.47265625,-25.390625,-142.578125,57.6171875
1770774295.1487253,,,83.0078125,-19.04296875,-64.453125,83.49609375
1770774295.1536314,,,79.1015625,-23.92578125,-312.5,98.14453125
1770774295.1585376,,,64.453125,-20.99609375,-189.453125,104.00390625
1770774295.1634438,,,49.8046875,-20.01953125,12.6953125,69.82421875
1770774295.16835,,,69.3359375,-25.87890625,-337.40234375,79.1015625
1770774295.1732562,,,97.65625,-44.921875,-747.55859375,101.07421875
1770774295.1781623,,,74.70703125,-35.64453125,-257.8125,87.40234375
1770774295.1830685,,,35.64453125,-17.578125,135.7421875,73.73046875
1770774295.1879747,,,64.453125,-33.203125,-175.29296875,89.35546875
1770774295.1928809,,,96.6796875,-27.83203125,-236.81640625,102.05078125
1770774295.197787,,,79.1015625,-10.7421875,1.46484375,85.44921875
1770774295.2014856,,,45.8984375,-22.4609375,-62.01171875,62.98828125
1770774295.205184,,,46.875,-26.85546875,-309.08203125,68.359375
1770774295.2088826,,,77.1484375,-19.04296875,-289.0625,84.47265625
1770774295.212581,,,78.125,-31.25,-230.46875,75.68359375
1770774295.2162795,,,42.48046875,-33.203125,-166.015625,55.6640625
1770774295.219978,,,29.78515625,-38.0859375,-618.1640625,50.78125
1770774295.2236764,,,58.10546875,-33.203125,-753.90625,65.4296875
1770774295.227375,,,63.96484375,-17.08984375,-127.44140625,65.91796875
1770774295.2310734,,,44.43359375,-33.69140625,-99.12109375,49.31640625
1770774295.234772,,,39.0625,-43.45703125,-611.81640625,20.99609375
1770774295.2384703,,,52.24609375,-33.203125,-585.44921875,25.87890625
1770774295.242169,,,53.22265625,-26.3671875,-75.68359375,43.9453125
1770774295.2470436,,,29.296875,-37.109375,-224.609375,36.62109375
1770774295.2519183,,,-0.48828125,-42.48046875,-481.93359375,18.06640625
1770774295.2567928,,,31.73828125,-32.71484375,-306.640625,19.53125
1770774295.2616675,,,48.33984375,-33.69140625,-173.828125,20.5078125
1770774295.2665422,,,23.4375,-48.828125,-421.875,13.18359375
1770774295.271417,,,2.9296875,-49.31640625,-653.80859375,5.859375
1770774295.2762916,,,4.8828125,-48.828125,-655.2734375,0.0
1770774295.2811663,,,25.390625,-46.38671875,-432.6171875,0.0
1770774295.2860408,,,28.3203125,-47.36328125,-458.49609375,-5.37109375
1770774295.2909155,,,-2.9296875,-45.41015625,-966.796875,-10.25390625
1770774295.2957902,,,-7.8125,-32.71484375,-621.09375,-15.13671875
1770774295.300665,,,28.3203125,-46.38671875,-152.34375,-9.27734375
1770774295.3032515,,,32.2265625,-46.38671875,-364.74609375,6.34765625
1770774295.3058379,,,7.8125,-35.64453125,-419.921875,-21.97265625
1770774295.3084245,,,-16.11328125,-36.1328125,-265.625,-63.96484375
1770774295.3110108,,,1.46484375,-39.0625,-263.18359375,-26.3671875
1770774295.3135974,,,20.01953125,-42.48046875,-436.03515625,13.18359375
1770774295.316184,,,-4.39453125,-52.734375,-620.60546875,-20.01953125
1770774295.3187704,,,-34.1796875,-39.0625,-607.421875,-50.78125
1770774295.321357,,,-15.625,-31.73828125,-391.11328125,-32.71484375
1770774295.3239434,,,19.04296875,-45.8984375,-694.3359375,-12.20703125
1770774295.32653,,,6.34765625,-33.69140625,-777.83203125,-11.71875
1770774295.3291163,,,-27.34375,-37.59765625,-470.703125,-22.4609375
1770774295.331703,,,-20.5078125,-43.9453125,-526.85546875,-28.3203125
1770774295.3356094,,,9.27734375,-30.76171875,-735.83984375,-4.8828125
1770774295.3395162,,,1.46484375,-29.78515625,-590.8203125,-0.9765625
1770774295.3434227,,,-28.80859375,-37.109375,-257.8125,-21.97265625
1770774295.3473294,,,-29.296875,-36.1328125,-494.140625,-22.94921875
1770774295.3512359,,,-6.34765625,-37.59765625,-622.0703125,-13.18359375
1770774295.3551426,,,-5.859375,-35.64453125,-591.796875,-0.48828125
1770774295.359049,,,-19.53125,-26.85546875,-470.703125,-12.20703125
1770774295.3629556,,,-38.57421875,-44.43359375,-565.91796875,-27.34375
1770774295.3668623,,,-25.87890625,-57.12890625,-874.0234375,-1.953125
1770774295.3707688,,,-8.7890625,-43.45703125,-440.4296875,3.41796875
1770774295.3746755,,,-14.6484375,-41.9921875,-182.12890625,-14.16015625
1770774295.378582,,,-32.2265625,-44.43359375,-453.61328125,-26.85546875
1770774295.3822005,,,-20.01953125,-42.48046875,-451.66015625,-30.2734375
1770774295.385819,,,-9.765625,-37.109375,-282.2265625,-11.23046875
1770774295.3894372,,,-16.6015625,-43.9453125,-427.734375,-17.578125
1770774295.3930557,,,-35.64453125,-45.8984375,-673.33984375,-30.2734375
1770774295.3966742,,,-47.36328125,-30.76171875,-580.56640625,-36.62109375
1770774295.4002924,,,-20.99609375,-38.57421875,-469.7265625,-20.01953125
1770774295.4039109,,,-6.8359375,-53.22265625,-487.79296875,-0.48828125
1770774295.4075294,,,-9.27734375,-54.6875,-731.4453125,-13.671875
1770774295.4111478,,,-20.99609375,-48.828125,-873.53515625,-30.2734375
1770774295.4147663,,,-12.20703125,-36.1328125,-292.96875,-48.828125
1770774295.4183846,,,-7.8125,-35.15625,-157.71484375,-37.109375
1770774295.422003,,,-34.66796875,-36.62109375,-341.30859375,-34.66796875
1770774295.426894,,,-56.15234375,-30.2734375,-227.5390625,-71.2890625
1770774295.431785,,,-41.50390625,-39.0625,-75.1953125,-63.4765625
1770774295.436676,,,-27.34375,-49.31640625,-244.62890625,-38.57421875
1770774295.441567,,,-41.015625,-43.9453125,-364.2578125,-42.48046875
1770774295.446458,,,-52.734375,-44.921875,-229.4921875,-45.8984375
1770774295.451349,,,-45.41015625,-40.0390625,-347.16796875,-30.76171875
1770774295.45624,,,-29.296875,-42.48046875,-503.90625,-11.23046875
1770774295.461131,,,-35.64453125,-52.734375,-931.640625,1.46484375
1770774295.466022,,,-59.08203125,-49.31640625,-600.09765625,-19.53125
1770774295.470913,,,-62.5,-43.9453125,-90.33203125,-55.17578125
1770774295.475804,,,-25.390625,-37.109375,-372.0703125,-32.71484375
1770774295.480695,,,-20.99609375,-38.0859375,-250.0,-10.7421875
1770774295.4834554,,,-43.9453125,-43.45703125,0.0,-24.90234375
1770774295.4862156,,,-57.6171875,-42.96875,-80.56640625,-34.66796875
1770774295.488976,,,-38.0859375,-53.7109375,-311.5234375,-31.25
1770774295.4917364,,,-19.53125,-44.43359375,-270.5078125,-27.34375
1770774295.4944966,,,-34.66796875,-35.15625,-125.48828125,-32.2265625
1770774295.497257,,,-57.6171875,-40.52734375,-346.6796875,-53.22265625
1770774295.5000174,,,-38.57421875,-50.29296875,-794.921875,-53.22265625
1770774295.5027776,,,-15.13671875,-38.57421875,-664.0625,-39.55078125
1770774295.505538,,,-30.2734375,-33.69140625,-132.8125,-49.8046875
1770774295.5082984,,,-47.36328125,-47.36328125,-271.484375,-55.6640625
1770774295.5110586,,,-46.38671875,-43.45703125,-692.87109375,-53.22265625
1770774295.513819,,,-27.83203125,-38.57421875,-501.953125,-45.41015625
1770774295.5185504,,,-28.3203125,-42.96875,-43.9453125,-26.85546875
1770774295.5232816,,,-44.921875,-48.828125,-206.0546875,-26.3671875
1770774295.528013,,,-53.22265625,-55.6640625,-370.1171875,-45.41015625
1770774295.5327444,,,-35.64453125,-66.89453125,-149.4140625,-34.1796875
1770774295.5374756,,,-21.484375,-63.4765625,-47.8515625,-15.625
1770774295.542207,,,-43.45703125,-61.5234375,-432.12890625,-28.3203125
1770774295.5469384,,,-67.87109375,-59.08203125,-820.3125,-34.1796875
1770774295.5516696,,,-40.52734375,-36.1328125,-382.32421875,-19.53125
1770774295.556401,,,-15.625,-31.25,35.64453125,-14.16015625
1770774295.5611324,,,-32.71484375,-45.8984375,-158.69140625,-13.18359375
1770774295.5658636,,,-46.38671875,-55.17578125,-234.375,-28.80859375
1770774295.570595,,,-12.6953125,-47.8515625,-30.76171875,-28.80859375
1770774295.57435,,,5.859375,-47.8515625,-37.109375,-15.13671875
1770774295.5781052,,,-8.30078125,-66.40625,-466.796875,-38.0859375
1770774295.5818603,,,-32.71484375,-44.43359375,-473.14453125,-61.5234375
1770774295.5856154,,,-37.109375,-22.94921875,-6.8359375,-52.734375
1770774295.5893705,,,-18.06640625,-29.296875,2.9296875,-40.0390625
1770774295.5931253,,,-27.83203125,-42.48046875,-320.80078125,-34.1796875
1770774295.5968804,,,-44.921875,-43.45703125,-337.40234375,-51.26953125
1770774295.6006355,,,-52.24609375,-31.25,-44.43359375,-66.40625
1770774295.6043906,,,-31.73828125,-32.71484375,61.03515625,-46.875
1770774295.6081457,,,-21.97265625,-48.33984375,-377.9296875,-37.59765625
1770774295.6119008,,,-30.76171875,-57.12890625,-375.48828125,-41.50390625
1770774295.615656,,,-48.33984375,-56.15234375,104.00390625,-44.43359375
1770774295.6196847,,,-29.296875,-54.19921875,-24.90234375,-31.25
1770774295.6237135,,,-26.3671875,-49.31640625,-161.1328125,-24.4140625
1770774295.627742,,,-58.10546875,-37.59765625,18.5546875,-35.64453125
1770774295.6317708,,,-66.89453125,-49.31640625,111.328125,-62.5
1770774295.6357996,,,-52.734375,-66.89453125,-207.03125,-39.55078125
1770774295.6398284,,,-34.1796875,-62.98828125,-662.109375,-1.953125
1770774295.6438572,,,-46.875,-58.59375,-307.12890625,-23.92578125
1770774295.647886,,,-63.4765625,-52.734375,242.67578125,-53.22265625
1770774295.6519146,,,-46.875,-48.828125,-119.140625,-46.38671875
1770774295.6559434,,,-30.2734375,-46.38671875,-486.81640625,-23.4375
1770774295.6599722,,,-23.92578125,-41.50390625,31.73828125,-17.08984375
1770774295.664001,,,-29.78515625,-49.8046875,233.3984375,-19.53125
1770774295.6688747,,,-32.71484375,-50.29296875,-47.8515625,-20.5078125
1770774295.6737483,,,-20.99609375,-39.55078125,-40.0390625,-9.765625
1770774295.678622,,,-2.9296875,-24.4140625,226.07421875,-1.953125
1770774295.6834958,,,-13.671875,-20.5078125,198.2421875,-16.6015625
1770774295.6883693,,,-47.8515625,-31.25,-62.5,-38.57421875
1770774295.693243,,,-32.71484375,-48.33984375,-248.53515625,-26.3671875
1770774295.6981168,,,-9.765625,-38.0859375,-113.76953125,-3.41796875
1770774295.7029903,,,-26.85546875,-27.34375,113.76953125,-15.13671875
1770774295.707864,,,-57.12890625,-41.9921875,-518.5546875,-40.0390625
1770774295.7127378,,,-48.828125,-39.55078125,-783.69140625,-45.41015625
1770774295.7176113,,,-22.4609375,-31.73828125,79.58984375,-23.92578125
1770774295.722485,,,-16.6015625,-35.64453125,238.28125,-20.5078125
1770774295.725115,,,-23.92578125,-40.0390625,20.99609375,-62.01171875
1770774295.7277448,,,-36.62109375,-41.50390625,113.28125,-60.05859375
1770774295.7303748,,,1.953125,-38.57421875,253.41796875,-33.69140625
1770774295.7330048,,,9.765625,-35.15625,140.625,-32.2265625
1770774295.7356346,,,-31.73828125,-22.4609375,-42.96875,-21.484375
1770774295.7382646,,,-42.96875,-24.4140625,-153.3203125,-30.76171875
1770774295.7408946,,,-18.06640625,-34.66796875,-40.52734375,-28.3203125
1770774295.7435243,,,-4.39453125,-42.96875,-5.859375,-12.6953125
1770774295.7461543,,,-19.04296875,-42.96875,-145.5078125,-25.390625
1770774295.7487843,,,-41.015625,-20.01953125,95.703125,-57.6171875
1770774295.751414,,,-37.109375,-16.11328125,248.53515625,-61.5234375
1770774295.754044,,,-24.4140625,-38.57421875,-129.39453125,-25.87890625
1770774295.7587938,,,-27.83203125,-44.921875,-811.5234375,-14.16015625
1770774295.7635434,,,-54.6875,-21.484375,-291.50390625,-39.0625
1770774295.768293,,,-57.6171875,-23.4375,249.0234375,-50.78125
1770774295.7730427,,,-20.99609375,-29.78515625,69.3359375,-33.203125
1770774295.7777925,,,-19.04296875,-34.66796875,68.84765625,-35.64453125
1770774295.782542,,,-25.87890625,-37.59765625,-28.80859375,-43.9453125
1770774295.7872915,,,-19.53125,-32.2265625,-131.8359375,-28.80859375
1770774295.7920413,,,-13.18359375,-41.9921875,-517.578125,-30.76171875
1770774295.796791,,,-17.08984375,-48.33984375,-542.48046875,-33.69140625
1770774295.8015406,,,-31.73828125,-37.59765625,176.7578125,-47.8515625
1770774295.8062901,,,-44.921875,-33.69140625,171.38671875,-60.05859375
1770774295.81104,,,-31.25,-38.0859375,-5.859375,-48.33984375
1770774295.8136153,,,-10.25390625,-42.96875,134.765625,-17.08984375
1770774295.816191,,,-22.94921875,-42.48046875,331.0546875,-15.625
1770774295.8187664,,,-49.31640625,-31.73828125,150.87890625,-22.94921875
1770774295.821342,,,-41.50390625,-26.85546875,-79.1015625,-19.04296875
1770774295.8239174,,,-17.08984375,-26.85546875,131.34765625,-26.85546875
1770774295.8264928,,,1.46484375,-29.78515625,107.91015625,-4.8828125
1770774295.8290684,,,-26.85546875,-49.8046875,-149.90234375,-9.765625
1770774295.8316438,,,-39.0625,-66.40625,-634.765625,-50.29296875
1770774295.8342195,,,-11.71875,-34.66796875,-242.1875,-25.390625
1770774295.8367949,,,-18.06640625,-19.04296875,423.33984375,-5.37109375
1770774295.8393705,,,-45.41015625,-24.90234375,123.53515625,-36.1328125
1770774295.841946,,,-34.1796875,-26.85546875,-18.5546875,-37.59765625
1770774295.8457074,,,-10.7421875,-25.87890625,285.15625,-26.3671875
1770774295.8494687,,,-20.01953125,-28.80859375,325.1953125,-31.73828125
1770774295.8532302,,,-39.0625,-41.015625,69.3359375,-49.8046875
1770774295.8569915,,,-53.22265625,-41.015625,24.90234375,-62.98828125
1770774295.860753,,,-28.80859375,-33.69140625,141.6015625,-43.9453125
1770774295.8645146,,,-22.4609375,-27.34375,29.78515625,-36.1328125
1770774295.868276,,,-39.0625,-35.15625,-529.296875,-47.36328125
1770774295.8720374,,,-45.8984375,-46.38671875,-727.5390625,-44.43359375
1770774295.8757987,,,-45.41015625,-35.15625,46.38671875,-34.66796875
1770774295.8795602,,,-39.55078125,-33.69140625,224.12109375,-19.04296875
1770774295.8833215,,,-33.203125,-41.50390625,-21.97265625,-39.0625
1770774295.887083,,,-56.15234375,-37.59765625,78.125,-60.05859375
1770774295.8920093,,,-66.40625,-31.25,270.01953125,-74.70703125
1770774295.8969357,,,-41.50390625,-34.66796875,160.64453125,-62.98828125
1770774295.9018621,,,-30.2734375,-43.9453125,40.52734375,-30.76171875
1770774295.9067883,,,-43.45703125,-41.9921875,189.453125,-71.2890625
1770774295.9117146,,,-56.15234375,-44.921875,219.23828125,-92.28515625
1770774295.916641,,,-21.97265625,-59.08203125,-97.65625,-18.06640625
1770774295.9215674,,,-14.16015625,-44.921875,-498.046875,7.32421875
1770774295.9264936,,,-37.59765625,-25.87890625,-78.125,-30.76171875
1770774295.9314198,,,-50.78125,-19.04296875,277.83203125,-50.78125
1770774295.9363463,,,-36.1328125,-20.99609375,-31.25,-32.2265625
1770774295.9412727,,,-10.7421875,-26.85546875,-58.10546875,-8.7890625
1770774295.946199,,,-16.6015625,-23.92578125,256.34765625,-41.015625
1770774295.9499466,,,-37.59765625,-19.04296875,389.16015625,-61.03515625
1770774295.9536943,,,-32.2265625,-22.94921875,-35.15625,-29.78515625
1770774295.957442,,,-14.6484375,-20.99609375,-160.64453125,-11.23046875
1770774295.9611895,,,-10.25390625,-15.13671875,330.56640625,-35.64453125
1770774295.9649372,,,-27.34375,-26.85546875,385.7421875,-47.36328125
1770774295.968685,,,-49.8046875,-32.71484375,-4.39453125,-26.85546875
1770774295.9724326,,,-28.3203125,-26.85546875,-57.12890625,-29.296875
1770774295.9761803,,,-1.46484375,-23.4375,333.0078125,-32.2265625
1770774295.979928,,,-25.390625,-30.76171875,413.0859375,-28.80859375
1770774295.9836755,,,-66.89453125,-29.78515625,-184.5703125,-29.296875
1770774295.9874232,,,-34.1796875,-32.2265625,-203.61328125,-44.43359375
1770774295.991171,,,-4.39453125,-39.55078125,382.8125,-31.73828125
1770774295.9950688,,,-35.64453125,-34.66796875,279.78515625,-47.36328125
1770774295.998967,,,-47.36328125,-44.43359375,-80.56640625,-82.03125
1770774296.0028648,,,-38.57421875,-45.41015625,-48.33984375,-47.8515625
1770774296.006763,,,-14.6484375,-18.06640625,300.29296875,-11.71875
1770774296.010661,,,-24.4140625,-22.94921875,195.80078125,-19.04296875
1770774296.0145588,,,-51.26953125,-40.52734375,-459.9609375,-37.109375
1770774296.018457,,,-40.0390625,-29.78515625,-335.44921875,-51.26953125
1770774296.0223548,,,-7.32421875,-26.85546875,317.87109375,-28.80859375
1770774296.026253,,,-19.53125,-40.52734375,79.58984375,-24.4140625
1770774296.030151,,,-54.19921875,-52.24609375,-355.95703125,-47.36328125
1770774296.034049,,,-51.26953125,-39.55078125,88.37890625,-66.40625
1770774296.037947,,,-17.08984375,-36.1328125,336.42578125,-34.1796875
1770774296.042976,,,-8.30078125,-53.7109375,86.9140625,-2.44140625
1770774296.048005,,,-39.55078125,-51.7578125,55.17578125,-30.76171875
1770774296.0530343,,,-54.19921875,-34.1796875,221.6796875,-54.19921875
1770774296.0580633,,,-27.34375,-31.25,228.02734375,-35.64453125
1770774296.0630922,,,-13.18359375,-36.62109375,57.12890625,-25.390625
1770774296.0681214,,,-28.3203125,-36.1328125,-120.1171875,-43.9453125
1770774296.0731506,,,-41.50390625,-23.4375,-173.33984375,-34.66796875
1770774296.0781796,,,-27.83203125,-33.69140625,-66.89453125,-39.0625
1770774296.0832086,,,-18.5546875,-59.08203125,-481.93359375,-38.57421875
1770774296.0882378,,,-14.6484375,-36.62109375,-754.39453125,-15.625
1770774296.093267,,,-48.33984375,-19.53125,12.20703125,-46.38671875
1770774296.098296,,,-54.6875,-33.203125,117.1875,-64.94140625
1770774296.100665,,,-15.13671875,-40.52734375,-77.1484375,-17.578125
1770774296.103034,,,-14.6484375,-31.25,133.30078125,3.41796875
1770774296.1054032,,,-17.08984375,-28.3203125,287.59765625,-17.08984375
1770774296.1077724,,,-32.2265625,-46.38671875,11.71875,-28.80859375
1770774296.1101413,,,-26.3671875,-38.57421875,-165.52734375,-31.73828125
1770774296.1125104,,,-25.390625,-26.3671875,-140.625,-10.25390625
1770774296.1148796,,,-40.52734375,-30.2734375,-119.140625,-7.8125
1770774296.1172485,,,-45.8984375,-38.57421875,-160.15625,-15.13671875
1770774296.1196177,,,-42.96875,-41.50390625,-575.1953125,-11.23046875
1770774296.1219869,,,-29.78515625,-27.83203125,-254.8828125,-4.8828125
1770774296.1243558,,,-34.1796875,-23.92578125,293.9453125,-20.01953125
1770774296.126725,,,-48.33984375,-35.15625,-172.8515625,-38.0859375
1770774296.1317525,,,-39.55078125,-36.1328125,-543.9453125,-34.1796875
1770774296.13678,,,-34.1796875,-30.76171875,57.12890625,-42.96875
1770774296.1418076,,,-36.62109375,-33.203125,249.51171875,-51.26953125
1770774296.146835,,,-43.45703125,-35.64453125,-11.23046875,-55.17578125
1770774296.1518626,,,-48.828125,-42.48046875,-65.4296875,-55.6640625
1770774296.1568902,,,-31.73828125,-47.36328125,-93.26171875,-64.453125
1770774296.1619174,,,-37.109375,-47.36328125,-119.140625,-58.10546875
1770774296.166945,,,-51.7578125,-50.29296875,-538.57421875,-42.48046875
1770774296.1719725,,,-49.8046875,-42.48046875,-601.07421875,-53.7109375
1770774296.177,,,-15.625,-35.15625,145.99609375,-28.80859375
1770774296.1820276,,,-2.9296875,-52.734375,166.015625,-29.296875
1770774296.187055,,,-25.390625,-62.5,-14.6484375,-46.875
1770774296.189806,,,-42.48046875,-41.50390625,-98.14453125,-53.7109375
1770774296.1925569,,,-35.15625,-26.3671875,7.32421875,-43.9453125
1770774296.1953077,,,-23.4375,-33.203125,68.84765625,-18.06640625
1770774296.1980584,,,-26.85546875,-44.43359375,-190.91796875,-11.23046875
1770774296.2008092,,,-47.36328125,-48.33984375,-54.6875,-47.36328125
1770774296.20356,,,-44.43359375,-50.29296875,-50.29296875,-54.19921875
1770774296.206311,,,-20.01953125,-51.26953125,-334.47265625,-20.01953125
1770774296.2090619,,,-35.64453125,-47.8515625,-709.9609375,-22.4609375
1770774296.2118127,,,-60.05859375,-33.203125,-280.76171875,-68.359375
1770774296.2145634,,,-57.6171875,-36.1328125,231.4453125,-83.49609375
1770774296.2173142,,,-40.0390625,-45.41015625,-138.671875,-34.66796875
1770774296.220065,,,-39.0625,-41.9921875,-182.6171875,-36.62109375
1770774296.2250533,,,-44.43359375,-42.96875,156.25,-68.359375
1770774296.2300413,,,-68.84765625,-53.7109375,100.09765625,-71.2890625
1770774296.2350292,,,-84.9609375,-62.5,-116.2109375,-85.44921875
1770774296.2400174,,,-79.58984375,-60.05859375,-165.52734375,-79.1015625
1770774296.2450056,,,-103.02734375,-53.7109375,-142.08984375,-104.4921875
1770774296.2499936,,,-145.99609375,-49.8046875,-210.44921875,-166.9921875
1770774296.2549815,,,-145.5078125,-62.98828125,-653.80859375,-142.08984375
1770774296.2599697,,,-121.58203125,-55.17578125,-816.89453125,-108.3984375
1770774296.264958,,,-144.53125,-41.015625,-61.5234375,-129.8828125
1770774296.2699459,,,-190.91796875,-54.19921875,120.60546875,-179.19921875
1770774296.2749338,,,-199.70703125,-42.48046875,-142.578125,-206.0546875
1770774296.279922,,,-209.9609375,-38.57421875,13.18359375,-186.03515625
1770774296.2833638,,,-232.91015625,-50.78125,206.0546875,-195.3125
1770774296.2868059,,,-263.18359375,-51.7578125,63.96484375,-258.30078125
1770774296.2902477,,,-283.203125,-66.89453125,-126.46484375,-261.23046875
1770774296.2936897,,,-274.90234375,-79.58984375,82.03125,-255.37109375
1770774296.2971315,,,-288.0859375,-67.87109375,196.77734375,-282.71484375
1770774296.3005733,,,-318.84765625,-62.5,-215.8203125,-285.64453125
1770774296.3040154,,,-329.1015625,-69.82421875,-399.90234375,-290.0390625
1770774296.3074572,,,-307.12890625,-70.80078125,-173.33984375,-291.015625
1770774296.3108993,,,-297.36328125,-79.58984375,16.11328125,-297.8515625
1770774296.314341,,,-321.77734375,-82.03125,-89.35546875,-317.3828125
1770774296.317783,,,-340.33203125,-87.40234375,-845.703125,-331.54296875
1770774296.321225,,,-322.75390625,-83.49609375,-479.4921875,-330.56640625
1770774296.3262398,,,-295.41015625,-81.0546875,172.36328125,-297.8515625
1770774296.3312547,,,-293.45703125,-81.0546875,25.87890625,-303.22265625
1770774296.3362696,,,-324.21875,-78.125,-34.1796875,-324.70703125
1770774296.3412845,,,-308.59375,-71.2890625,157.2265625,-308.59375
1770774296.3462994,,,-269.04296875,-71.77734375,162.109375,-299.31640625
1770774296.3513143,,,-268.06640625,-76.66015625,-223.6328125,-301.26953125
1770774296.3563294,,,-279.78515625,-65.91796875,-234.86328125,-300.29296875
1770774296.3613443,,,-280.2734375,-56.15234375,155.76171875,-302.24609375
1770774296.3663592,,,-246.58203125,-68.84765625,244.62890625,-290.52734375
1770774296.3713741,,,-221.19140625,-75.1953125,-291.015625,-259.765625
1770774296.376389,,,-223.14453125,-74.21875,-326.171875,-235.3515625
1770774296.381404,,,-239.2578125,-70.3125,21.484375,-246.58203125
1770774296.3863769,,,-224.12109375,-54.6875,-43.45703125,-220.703125
1770774296.3913496,,,-198.73046875,-45.8984375,-179.19921875,-187.98828125
1770774296.3963225,,,-188.4765625,-34.1796875,-33.203125,-193.359375
1770774296.4012952,,,-202.1484375,-42.96875,198.2421875,-231.4453125
1770774296.4062681,,,-193.84765625,-56.640625,23.4375,-210.44921875
1770774296.4112408,,,-159.1796875,-61.5234375,-244.62890625,-149.90234375
1770774296.4162138,,,-153.3203125,-61.03515625,-85.9375,-147.94921875
1770774296.4211867,,,-155.76171875,-56.15234375,276.3671875,-158.203125
1770774296.4261594,,,-148.4375,-58.10546875,-61.5234375,-141.11328125
1770774296.4311323,,,-101.07421875,-43.45703125,-518.06640625,-125.9765625
1770774296.436105,,,-52.734375,-36.1328125,9.765625,-81.0546875
1770774296.441078,,,-79.1015625,-26.85546875,302.24609375,-68.359375
1770774296.4435804,,,-83.49609375,-19.53125,-85.44921875,-55.6640625
1770774296.446083,,,-20.99609375,-40.52734375,-116.69921875,2.44140625
1770774296.4485855,,,26.85546875,-41.015625,62.01171875,22.4609375
1770774296.451088,,,40.52734375,-29.296875,53.7109375,28.3203125
1770774296.4535904,,,33.69140625,-49.8046875,-185.05859375,19.04296875
1770774296.4560928,,,52.734375,-46.38671875,-398.4375,33.69140625
1770774296.4585955,,,86.42578125,-12.6953125,23.4375,99.12109375
1770774296.461098,,,90.8203125,3.41796875,246.58203125,122.55859375
1770774296.4636004,,,97.16796875,-2.44140625,-9.27734375,114.74609375
1770774296.466103,,,117.1875,-17.578125,-17.08984375,138.18359375
1770774296.4686055,,,138.671875,-29.78515625,308.10546875,153.80859375
1770774296.471108,,,149.4140625,-28.80859375,280.76171875,156.73828125
1770774296.4736848,,,125.48828125,-30.76171875,-191.40625,153.80859375
1770774296.4762619,,,109.375,-21.97265625,-157.2265625,136.71875
1770774296.4788387,,,143.06640625,-6.34765625,246.58203125,154.296875
1770774296.4814157,,,153.3203125,-17.08984375,127.44140625,161.62109375
1770774296.4839926,,,136.23046875,-22.94921875,-321.2890625,137.20703125
1770774296.4865694,,,128.41796875,-13.671875,-350.09765625,113.76953125
1770774296.4891465,,,144.04296875,-15.625,-65.91796875,131.34765625
1770774296.4917233,,,149.4140625,-22.94921875,-165.0390625,158.203125
1770774296.4943004,,,130.37109375,-18.5546875,-570.80078125,149.4140625
1770774296.4968772,,,130.37109375,-12.6953125,-265.625,116.69921875
1770774296.4994543,,,145.5078125,-11.71875,239.2578125,104.98046875
1770774296.502031,,,152.83203125,-14.16015625,-170.8984375,127.9296875
1770774296.506907,,,155.2734375,-14.6484375,-513.18359375,141.11328125
1770774296.5117826,,,127.9296875,-24.4140625,-35.15625,107.91015625
1770774296.5166585,,,124.0234375,-30.76171875,55.6640625,99.12109375
1770774296.5215344,,,148.4375,-19.04296875,-217.28515625,128.41796875
1770774296.52641,,,139.16015625,-20.5078125,-270.99609375,124.51171875
1770774296.531286,,,109.375,-19.04296875,-278.80859375,102.5390625
1770774296.536162,,,93.26171875,-18.5546875,-337.890625,89.84375
1770774296.5410376,,,123.53515625,-25.87890625,-682.12890625,115.234375
1770774296.5459135,,,126.46484375,-22.94921875,-690.91796875,115.234375
1770774296.5507894,,,94.7265625,-27.83203125,-195.80078125,96.19140625
1770774296.555665,,,68.84765625,-44.43359375,-392.578125,89.35546875
1770774296.560541,,,86.9140625,-44.921875,-648.4375,81.54296875
1770774296.563174,,,103.02734375,-28.80859375,-460.44921875,89.35546875
1770774296.565807,,,80.078125,-24.4140625,-166.015625,84.9609375
1770774296.5684402,,,56.15234375,-36.1328125,-403.80859375,77.1484375
1770774296.5710733,,,61.03515625,-36.1328125,-616.69921875,55.6640625
1770774296.5737064,,,76.66015625,-25.87890625,-396.97265625,64.453125
1770774296.5763395,,,76.171875,-34.66796875,-450.1953125,99.12109375
1770774296.5789726,,,53.7109375,-40.52734375,-744.62890625,75.68359375
1770774296.5816057,,,38.57421875,-35.64453125,-892.08984375,72.75390625
1770774296.5842388,,,58.59375,-34.66796875,-505.859375,99.609375
1770774296.5868719,,,61.5234375,-47.36328125,-113.28125,94.23828125
1770774296.589505,,,41.015625,-42.48046875,-439.94140625,62.01171875
1770774296.592138,,,22.94921875,-27.83203125,-636.71875,45.41015625
1770774296.597081,,,41.50390625,-32.71484375,-249.0234375,67.3828125
1770774296.6020236,,,52.24609375,-38.0859375,-244.140625,63.96484375
1770774296.6069665,,,27.83203125,-41.50390625,-683.59375,30.2734375
1770774296.6119094,,,-0.48828125,-39.0625,-584.9609375,29.78515625
1770774296.6168523,,,20.01953125,-41.9921875,-111.81640625,49.8046875
1770774296.6217952,,,28.3203125,-63.96484375,-210.9375,64.94140625
1770774296.6267378,,,14.6484375,-63.4765625,-705.078125,51.7578125
1770774296.6316807,,,-6.34765625,-40.0390625,-704.1015625,33.69140625
1770774296.6366236,,,-4.39453125,-21.97265625,-97.65625,32.71484375
1770774296.6415663,,,42.96875,-35.64453125,-52.24609375,67.87109375
1770774296.6465092,,,37.109375,-47.36328125,-232.91015625,61.03515625
1770774296.651452,,,6.34765625,-39.0625,-169.921875,39.55078125
1770774296.6551542,,,6.8359375,-44.921875,-26.3671875,30.2734375
1770774296.6588566,,,22.4609375,-55.17578125,-105.95703125,3.90625
1770774296.6625588,,,20.01953125,-44.43359375,-238.76953125,9.765625
1770774296.666261,,,8.30078125,-30.2734375,-127.44140625,40.52734375
1770774296.6699634,,,-4.39453125,-35.64453125,-64.94140625,39.55078125
1770774296.6736655,,,18.06640625,-35.15625,-344.23828125,36.1328125
1770774296.6773677,,,34.66796875,-33.203125,-798.828125,40.0390625
1770774296.68107,,,0.0,-55.6640625,-478.515625,2.44140625
1770774296.6847723,,,-27.83203125,-52.734375,87.890625,-0.9765625
1770774296.6884744,,,-9.27734375,-26.85546875,-238.28125,17.08984375
1770774296.6921768,,,-0.48828125,-28.80859375,-428.7109375,-2.9296875
1770774296.695879,,,-6.34765625,-30.2734375,48.828125,-23.4375
1770774296.6997151,,,-21.484375,-21.97265625,127.9296875,-17.08984375
1770774296.7035515,,,-37.59765625,-35.64453125,-156.25,-8.7890625
1770774296.7073877,,,-18.06640625,-68.359375,-178.7109375,-10.25390625
1770774296.711224,,,-5.859375,-56.15234375,83.49609375,-31.25
1770774296.7150602,,,-11.71875,-25.87890625,52.24609375,-45.8984375
1770774296.7188964,,,-16.11328125,-33.69140625,-359.375,-50.29296875
1770774296.7227328,,,-16.11328125,-26.3671875,-370.1171875,-70.80078125
1770774296.726569,,,-24.90234375,-7.8125,36.1328125,-66.89453125
1770774296.7304053,,,-52.24609375,-27.34375,50.29296875,-80.078125
1770774296.7342415,,,-73.2421875,-39.55078125,-546.38671875,-129.8828125
1770774296.7380779,,,-73.2421875,-75.1953125,-443.84765625,-170.8984375
1770774296.741914,,,-68.359375,-110.3515625,312.01171875,-132.32421875
1770774296.745659,,,-91.30859375,-84.9609375,261.23046875,-113.76953125
1770774296.7494044,,,-129.39453125,-73.73046875,-61.03515625,-150.87890625
1770774296.7531495,,,-122.0703125,-46.38671875,141.11328125,-168.9453125
1770774296.7568946,,,-103.02734375,-5.859375,469.7265625,-156.25
1770774296.76064,,,-89.84375,-18.06640625,357.91015625,-113.76953125
1770774296.764385,,,-98.6328125,-44.43359375,14.6484375,-102.5390625
1770774296.76813,,,-80.078125,-38.0859375,91.796875,-115.72265625
1770774296.7718754,,,-45.41015625,-39.0625,501.953125,-108.3984375
1770774296.7756205,,,-50.78125,-58.59375,312.98828125,-57.12890625
1770774296.7793655,,,-66.40625,-58.59375,-228.515625,-48.33984375
1770774296.7831109,,,-81.54296875,-48.33984375,178.22265625,-86.9140625
1770774296.786856,,,-73.2421875,-35.15625,622.0703125,-85.9375
1770774296.7906733,,,-52.24609375,-21.484375,145.5078125,-38.57421875
1770774296.7944903,,,-51.26953125,-64.453125,16.11328125,-37.59765625
1770774296.7983077,,,-63.4765625,-89.35546875,492.67578125,-91.30859375
1770774296.802125,,,-50.78125,-49.31640625,517.08984375,-109.86328125
1770774296.8059423,,,-35.15625,-13.18359375,278.80859375,-89.35546875
1770774296.8097596,,,-41.9921875,-10.25390625,169.921875,-67.3828125
1770774296.8135767,,,-61.03515625,-23.4375,259.765625,-93.26171875
1770774296.817394,,,-53.7109375,-39.55078125,482.421875,-99.12109375
1770774296.8212113,,,-56.640625,-72.75390625,-22.4609375,-68.84765625
1770774296.8250284,,,-44.43359375,-50.78125,-228.02734375,-64.453125
1770774296.8288457,,,-32.2265625,-13.671875,464.84375,-96.6796875
1770774296.832663,,,-44.43359375,-24.4140625,388.671875,-118.65234375
1770774296.836405,,,-35.64453125,-38.0859375,238.76953125,-75.1953125
1770774296.840147,,,-34.66796875,-41.015625,432.6171875,-65.4296875
1770774296.8438888,,,-39.55078125,-37.59765625,541.50390625,-74.70703125
1770774296.8476307,,,-50.29296875,-26.85546875,312.5,-85.44921875
1770774296.8513727,,,-35.15625,-33.203125,97.65625,-82.51953125
1770774296.8551145,,,-20.5078125,-42.96875,132.32421875,-62.98828125
1770774296.8588564,,,-38.0859375,-30.76171875,314.94140625,-66.89453125
1770774296.8625984,,,-56.640625,-39.0625,262.20703125,-73.73046875
1770774296.8663404,,,-50.78125,-44.921875,-438.4765625,-31.25
1770774296.8700824,,,-45.8984375,-29.78515625,-45.8984375,-33.203125
1770774296.8738241,,,-42.96875,-31.73828125,535.64453125,-30.2734375
1770774296.877566,,,-55.17578125,-33.69140625,212.890625,-28.80859375
1770774296.8812726,,,-41.9921875,-42.48046875,144.53125,-54.19921875
1770774296.884979,,,-19.53125,-34.66796875,367.1875,-17.08984375
1770774296.8886855,,,-15.625,-32.71484375,387.20703125,-32.2265625
1770774296.8923917,,,-20.99609375,-49.31640625,159.66796875,-47.36328125
1770774296.8960981,,,-27.83203125,-49.8046875,104.98046875,-30.76171875
1770774296.8998046,,,-19.53125,-47.8515625,66.89453125,-26.3671875
1770774296.903511,,,-16.11328125,-29.78515625,88.37890625,4.39453125
1770774296.9072175,,,-25.390625,-26.85546875,-351.07421875,-18.5546875
1770774296.910924,,,-33.69140625,-20.99609375,-705.56640625,-28.80859375
1770774296.9146302,,,3.41796875,-4.8828125,107.91015625,-41.50390625
1770774296.9183366,,,13.18359375,-37.109375,351.5625,-47.36328125
1770774296.922043,,,-21.97265625,-72.265625,135.7421875,-43.9453125
1770774296.927091,,,-47.36328125,-52.24609375,184.08203125,-73.2421875
1770774296.9321387,,,-38.0859375,-27.83203125,277.34375,-68.359375
1770774296.9371865,,,-18.06640625,-41.015625,219.7265625,-44.921875
1770774296.9422343,,,-13.671875,-41.50390625,59.5703125,-27.34375
1770774296.947282,,,-29.78515625,-25.390625,81.54296875,-33.69140625
1770774296.9523299,,,-42.48046875,-31.25,87.890625,-40.0390625
1770774296.957378,,,-37.109375,-46.38671875,-131.34765625,-42.96875
1770774296.9624257,,,-37.109375,-43.9453125,-463.8671875,-58.10546875
1770774296.9674735,,,-50.29296875,-42.96875,-57.6171875,-36.1328125
1770774296.9725213,,,-53.22265625,-73.2421875,371.09375,-30.76171875
1770774296.977569,,,-31.25,-77.1484375,-40.52734375,-35.15625
1770774296.982617,,,-25.87890625,-35.15625,-191.89453125,-26.85546875
1770774296.9852023,,,-40.52734375,-19.04296875,220.21484375,-25.390625
1770774296.9877877,,,-51.7578125,-34.1796875,281.25,-31.73828125
1770774296.9903731,,,-32.2265625,-34.1796875,-58.59375,-15.13671875
1770774296.9929585,,,-22.94921875,-16.6015625,-49.31640625,-1.46484375
1770774296.995544,,,-44.43359375,-31.73828125,201.66015625,-25.87890625
1770774296.9981296,,,-60.546875,-59.5703125,-11.71875,-30.76171875
1770774297.000715,,,-49.31640625,-44.43359375,-525.390625,-3.90625
1770774297.0033004,,,-27.83203125,-41.015625,-474.609375,-17.578125
1770774297.0058858,,,-23.4375,-44.43359375,158.69140625,-26.3671875
1770774297.0084713,,,-46.875,-41.9921875,128.90625,-36.62109375
1770774297.0110567,,,-60.05859375,-25.390625,-104.98046875,-43.9453125
1770774297.013642,,,-39.0625,-0.48828125,23.92578125,-47.8515625
1770774297.0184445,,,-20.99609375,-27.83203125,203.61328125,-45.41015625
1770774297.0232472,,,-41.50390625,-60.05859375,76.66015625,-18.06640625
1770774297.02805,,,-73.2421875,-69.3359375,-223.14453125,-57.6171875
1770774297.0328524,,,-41.9921875,-54.19921875,-104.98046875,-65.91796875
1770774297.0376549,,,-7.8125,-31.25,154.296875,-28.80859375
1770774297.0424576,,,-28.3203125,-31.25,-48.33984375,-37.59765625
1770774297.0472603,,,-45.41015625,-40.52734375,-804.19921875,-58.10546875
1770774297.0520627,,,-30.76171875,-24.4140625,-494.140625,-49.31640625
1770774297.0568652,,,-6.34765625,-5.859375,720.703125,-42.48046875
1770774297.061668,,,-22.4609375,-21.484375,733.88671875,-42.48046875
1770774297.0664706,,,-40.0390625,-30.76171875,543.9453125,-66.89453125
1770774297.071273,,,-26.3671875,-29.78515625,717.7734375,-66.89453125
1770774297.075088,,,-20.5078125,-29.78515625,738.28125,-67.3828125
1770774297.0789032,,,-15.13671875,-25.390625,508.30078125,-71.2890625
1770774297.0827181,,,-26.3671875,-20.99609375,418.45703125,-63.4765625
1770774297.086533,,,-34.1796875,-35.15625,601.07421875,-61.5234375
1770774297.090348,,,-10.25390625,-39.0625,545.8984375,-52.24609375
1770774297.094163,,,-14.6484375,-30.76171875,163.0859375,-23.4375
1770774297.097978,,,-34.1796875,-31.73828125,56.640625,-18.5546875
1770774297.101793,,,-39.55078125,-22.94921875,243.65234375,-61.5234375
1770774297.105608,,,-31.73828125,-22.4609375,483.88671875,-67.87109375
1770774297.1094232,,,-12.20703125,-39.55078125,10.25390625,-7.32421875
1770774297.113238,,,-4.8828125,-37.59765625,-75.1953125,-29.78515625
1770774297.117053,,,-25.87890625,-25.390625,522.4609375,-67.87109375
1770774297.1209328,,,-32.2265625,-44.43359375,474.12109375,-68.84765625
1770774297.1248126,,,-20.5078125,-43.45703125,182.6171875,-29.78515625
1770774297.1286924,,,-21.97265625,-12.6953125,270.5078125,-3.41796875
1770774297.132572,,,-41.9921875,-12.20703125,476.5625,-44.43359375
1770774297.1364517,,,-46.875,-36.1328125,291.50390625,-54.6875
1770774297.1403315,,,-23.92578125,-28.3203125,17.578125,-29.78515625
1770774297.1442113,,,-25.87890625,-17.578125,155.2734375,-14.16015625
1770774297.148091,,,-37.109375,-42.48046875,465.8203125,-8.7890625
1770774297.1519709,,,-32.71484375,-54.6875,215.33203125,-30.2734375
1770774297.1558504,,,-19.53125,-42.48046875,-399.90234375,-41.015625
1770774297.1597302,,,-6.34765625,-28.3203125,-66.89453125,-10.7421875
1770774297.16361,,,-17.578125,-35.15625,498.53515625,-9.27734375
1770774297.1673436,,,-54.19921875,-38.57421875,48.33984375,-35.64453125
1770774297.1710773,,,-15.13671875,-27.83203125,-181.15234375,-13.671875
1770774297.1748106,,,13.671875,-29.296875,336.9140625,1.46484375
1770774297.1785443,,,-22.4609375,-34.66796875,386.23046875,-30.76171875
1770774297.182278,,,-32.2265625,-29.296875,127.9296875,-20.01953125
1770774297.1860113,,,-18.5546875,-20.5078125,-64.453125,13.671875
1770774297.189745,,,-7.8125,-10.25390625,76.66015625,-8.7890625
1770774297.1934786,,,-13.18359375,-10.25390625,405.2734375,-26.3671875
1770774297.1972122,,,-43.45703125,-45.41015625,-175.29296875,-41.015625
1770774297.2009459,,,-29.78515625,-44.921875,-381.8359375,-39.55078125
1770774297.2046793,,,-0.9765625,-16.11328125,389.6484375,-14.16015625
1770774297.208413,,,-11.71875,-27.34375,369.140625,-14.6484375
1770774297.2122853,,,-32.2265625,-49.31640625,78.61328125,-28.80859375
1770774297.2161577,,,-41.9921875,-45.41015625,-2.9296875,-43.45703125
1770774297.22003,,,-14.6484375,-25.87890625,228.515625,-23.92578125
1770774297.2239027,,,-18.06640625,-23.92578125,260.7421875,-18.5546875
1770774297.227775,,,-45.8984375,-32.71484375,-72.75390625,-26.3671875
1770774297.2316475,,,-45.8984375,-36.1328125,-182.12890625,-27.83203125
1770774297.23552,,,-23.92578125,-32.2265625,51.26953125,-19.53125
1770774297.2393923,,,-10.25390625,-53.22265625,91.796875,-42.48046875
1770774297.2432647,,,-12.20703125,-71.77734375,-366.2109375,-43.45703125
1770774297.2471373,,,-43.9453125,-33.203125,-71.77734375,-43.45703125
1770774297.2510097,,,-45.8984375,-28.80859375,316.89453125,-53.22265625
1770774297.254882,,,-26.85546875,-48.33984375,86.42578125,-41.9921875
1770774297.2596457,,,-48.33984375,-34.66796875,43.45703125,-50.29296875
1770774297.2644095,,,-62.01171875,-23.92578125,253.41796875,-54.6875
1770774297.2691731,,,-38.0859375,-27.83203125,226.07421875,-35.64453125
1770774297.2739367,,,-23.4375,-31.73828125,30.76171875,-20.5078125
1770774297.2787004,,,-28.80859375,-39.0625,-62.98828125,-41.50390625
1770774297.283464,,,-36.1328125,-61.5234375,-131.8359375,-38.57421875
1770774297.2882278,,,-40.52734375,-41.50390625,-155.2734375,-53.7109375
1770774297.2929914,,,-35.15625,-25.87890625,-571.2890625,-50.78125
1770774297.297755,,,-35.15625,-25.87890625,-777.34375,-10.25390625
1770774297.3025188,,,-38.0859375,-16.11328125,0.9765625,-36.62109375
1770774297.3072824,,,-43.9453125,-20.5078125,185.05859375,-56.15234375
1770774297.312046,,,-32.2265625,-40.0390625,-5.37109375,-53.7109375
1770774297.3146775,,,-30.76171875,-51.26953125,156.73828125,-49.8046875
1770774297.3173087,,,-38.57421875,-28.80859375,279.296875,-31.25
1770774297.31994,,,-51.26953125,-29.296875,44.921875,-33.203125
1770774297.3225713,,,-54.19921875,-30.2734375,-147.4609375,-36.1328125
1770774297.3252027,,,-32.71484375,-15.13671875,5.859375,-28.3203125
1770774297.3278341,,,-30.76171875,-20.99609375,-52.24609375,-18.5546875
1770774297.3304653,,,-34.66796875,-32.2265625,-335.44921875,-2.9296875
1770774297.3330967,,,-34.1796875,-38.0859375,-665.0390625,-25.87890625
1770774297.335728,,,-16.11328125,-34.1796875,-429.6875,-26.3671875
1770774297.3383594,,,-1.46484375,-39.0625,109.86328125,-27.34375
1770774297.3409905,,,-23.4375,-34.1796875,-166.015625,-31.25
1770774297.343622,,,-58.59375,-21.484375,-567.87109375,-36.62109375
1770774297.3472326,,,-54.6875,-25.87890625,-75.1953125,-26.85546875
1770774297.350843,,,-29.78515625,-27.83203125,151.3671875,-15.625
1770774297.3544536,,,-44.921875,-19.53125,-104.98046875,-45.8984375
1770774297.358064,,,-76.171875,-28.3203125,-229.00390625,-75.1953125
1770774297.3616745,,,-57.12890625,-32.71484375,-145.5078125,-58.10546875
1770774297.3652852,,,-27.83203125,-27.83203125,-143.06640625,-50.29296875
1770774297.3688955,,,-16.11328125,-33.69140625,-619.140625,-43.45703125
1770774297.3725061,,,-35.15625,-28.3203125,-703.125,-64.94140625
1770774297.3761165,,,-39.0625,-22.94921875,-7.32421875,-51.26953125
1770774297.3797271,,,-15.13671875,-36.1328125,75.1953125,-6.34765625
1770774297.3833375,,,-15.13671875,-38.57421875,-62.01171875,9.765625
1770774297.386948,,,-36.62109375,-45.8984375,-95.21484375,-18.5546875
1770774297.391856,,,-48.33984375,-47.36328125,-121.58203125,-41.9921875
1770774297.3967638,,,-31.73828125,-33.69140625,-74.70703125,-25.390625
1770774297.401672,,,-22.4609375,-29.296875,-292.96875,-4.39453125
1770774297.4065797,,,-49.8046875,-21.97265625,-194.3359375,-39.55078125
1770774297.4114876,,,-60.05859375,-12.6953125,18.06640625,-82.03125
1770774297.4163957,,,-36.62109375,-32.2265625,-284.66796875,-32.71484375
1770774297.4213035,,,-23.92578125,-47.36328125,-727.5390625,-20.99609375
1770774297.4262114,,,-38.0859375,-33.69140625,-365.234375,-41.50390625
1770774297.4311192,,,-60.546875,-30.76171875,33.203125,-36.62109375
1770774297.436027,,,-49.31640625,-41.50390625,-214.35546875,-22.4609375
1770774297.4409351,,,-27.34375,-42.48046875,-225.5859375,-18.06640625
1770774297.445843,,,-36.1328125,-41.015625,44.921875,-39.55078125
1770774297.4508517,,,-56.15234375,-48.33984375,30.2734375,-55.6640625
1770774297.4558606,,,-34.1796875,-42.96875,-231.93359375,-59.5703125
1770774297.4608693,,,-1.46484375,-34.66796875,-217.7734375,-18.06640625
1770774297.465878,,,-11.23046875,-45.41015625,-175.78125,-6.8359375
1770774297.4708867,,,-32.71484375,-39.55078125,-132.8125,-41.50390625
1770774297.4758954,,,-29.296875,-31.25,-557.12890625,-42.96875
1770774297.4809043,,,-6.8359375,-41.50390625,-826.171875,-34.1796875
1770774297.485913,,,-2.9296875,-29.296875,-154.78515625,-36.1328125
1770774297.4909217,,,-13.671875,-24.4140625,0.9765625,-14.16015625
1770774297.4959307,,,-29.296875,-48.828125,-238.28125,-11.23046875
1770774297.5009394,,,-19.04296875,-58.10546875,-190.4296875,-19.04296875
1770774297.505948,,,-3.41796875,-37.59765625,45.8984375,-19.04296875
1770774297.5085385,,,-5.859375,-25.390625,-46.38671875,-10.7421875
1770774297.5111291,,,-30.76171875,-20.01953125,-367.67578125,-34.1796875
1770774297.5137196,,,-22.94921875,-16.11328125,-201.171875,-45.8984375
1770774297.51631,,,-3.90625,-26.3671875,90.8203125,-20.99609375
1770774297.5189006,,,-19.04296875,-39.55078125,-109.375,-20.99609375
1770774297.521491,,,-34.66796875,-50.78125,-493.1640625,-26.85546875
1770774297.5240815,,,-25.87890625,-48.33984375,-554.19921875,-36.62109375
1770774297.5266721,,,-18.06640625,-50.78125,-290.0390625,-51.26953125
1770774297.5292625,,,-10.25390625,-62.01171875,-324.21875,-32.2265625
1770774297.531853,,,-22.94921875,-56.640625,-680.17578125,-23.92578125
1770774297.5344436,,,-50.29296875,-30.2734375,-355.95703125,-26.3671875
1770774297.537034,,,-23.92578125,-25.87890625,-17.08984375,-28.3203125
1770774297.5436094,,,-16.11328125,-35.15625,-439.94140625,-23.4375
1770774297.5501847,,,-39.55078125,-40.52734375,-682.12890625,-14.6484375
1770774297.5567603,,,-59.08203125,-42.48046875,-136.71875,-34.66796875
1770774297.5633357,,,-42.96875,-40.52734375,-20.01953125,-27.83203125
1770774297.569911,,,-15.625,-42.96875,-216.30859375,-19.04296875
1770774297.5764866,,,-12.20703125,-50.78125,-369.140625,0.48828125
1770774297.583062,,,-42.48046875,-49.8046875,-349.12109375,-24.4140625
1770774297.5896373,,,-47.8515625,-34.1796875,-137.20703125,-37.109375
1770774297.5962126,,,-20.01953125,-26.3671875,-558.10546875,-34.66796875
1770774297.602788,,,-25.87890625,-33.203125,-731.93359375,-55.17578125
1770774297.6093636,,,-52.24609375,-32.71484375,-332.51953125,-65.91796875
1770774297.615939,,,-55.17578125,-38.57421875,-413.0859375,-76.171875
1770774297.6168606,,,-37.59765625,-43.45703125,-510.25390625,-40.52734375
1770774297.6177824,,,-25.390625,-37.59765625,-291.50390625,-27.83203125
1770774297.618704,,,-31.25,-29.78515625,-30.76171875,-39.55078125
1770774297.619626,,,-55.6640625,-33.203125,-222.65625,-54.6875
1770774297.6205478,,,-46.875,-35.64453125,-354.4921875,-37.59765625
1770774297.6214695,,,-26.85546875,-46.38671875,-382.32421875,-15.625
1770774297.6223912,,,-49.31640625,-41.9921875,-333.49609375,-36.1328125
1770774297.623313,,,-78.125,-36.1328125,-397.94921875,-47.36328125
1770774297.6242347,,,-60.546875,-44.921875,-735.3515625,-35.15625
1770774297.6251566,,,-31.25,-33.69140625,-302.734375,-19.53125
1770774297.6260784,,,-43.9453125,-27.34375,61.5234375,-6.8359375
1770774297.627,,,-72.75390625,-36.62109375,-302.734375,-39.0625
1770774297.6307766,,,-43.9453125,-35.15625,-364.74609375,-32.2265625
1770774297.6345534,,,-17.08984375,-30.76171875,-65.4296875,-8.30078125
1770774297.63833,,,-35.64453125,-43.45703125,-212.40234375,-45.41015625
1770774297.6421068,,,-64.94140625,-46.38671875,-627.9296875,-62.5
1770774297.6458833,,,-65.91796875,-39.55078125,-578.61328125,-34.1796875
1770774297.6496599,,,-37.109375,-27.34375,-325.1953125,-33.69140625
1770774297.6534367,,,-20.99609375,-25.390625,-325.68359375,-12.20703125
1770774297.6572132,,,-35.15625,-35.15625,-650.87890625,3.41796875
1770774297.66099,,,-49.31640625,-28.80859375,-722.16796875,-11.71875
1770774297.6647666,,,-19.53125,-20.5078125,-115.72265625,-19.04296875
1770774297.6685433,,,-2.44140625,-25.87890625,-48.33984375,15.625
1770774297.67232,,,-28.3203125,-25.87890625,-239.2578125,20.01953125
1770774297.6760256,,,-54.6875,-29.296875,-176.7578125,-38.0859375
1770774297.6797314,,,-40.0390625,-35.15625,-30.2734375,-29.78515625
1770774297.683437,,,-29.78515625,-53.7109375,-189.94140625,-20.99609375
1770774297.6871428,,,-32.71484375,-58.59375,-354.00390625,-21.97265625
1770774297.6908486,,,-54.6875,-41.9921875,-272.94921875,-41.50390625
1770774297.6945546,,,-62.5,-23.92578125,-331.0546875,-49.31640625
1770774297.6982603,,,-34.66796875,-15.13671875,-489.74609375,-8.30078125
1770774297.701966,,,-37.59765625,-41.50390625,-927.734375,-21.484375
1770774297.7056718,,,-52.24609375,-33.69140625,-692.3828125,-41.015625
1770774297.7093775,,,-62.98828125,-17.08984375,-139.6484375,-74.70703125
1770774297.7130833,,,-35.15625,-30.76171875,-282.71484375,-43.9453125
1770774297.716789,,,-21.484375,-41.50390625,-261.71875,19.04296875
1770774297.7206852,,,-36.62109375,-36.62109375,-57.12890625,-1.46484375
1770774297.7245817,,,-52.24609375,-32.2265625,-107.91015625,-62.5
1770774297.728478,,,-50.78125,-46.38671875,-347.65625,-78.125
1770774297.7323744,,,-41.50390625,-40.0390625,-328.61328125,-39.55078125
1770774297.7362707,,,-50.29296875,-25.87890625,-177.24609375,-24.4140625
1770774297.740167,,,-58.59375,-29.296875,-362.3046875,-35.15625
1770774297.7440634,,,-49.8046875,-41.015625,-774.90234375,-41.9921875
1770774297.7479596,,,-33.203125,-39.0625,-740.234375,-33.203125
1770774297.751856,,,-23.4375,-34.1796875,-153.3203125,-33.69140625
1770774297.7557523,,,-45.41015625,-50.29296875,-262.6953125,-44.43359375
1770774297.7596488,,,-63.4765625,-44.921875,-614.74609375,-51.7578125
1770774297.763545,,,-38.0859375,-43.45703125,-359.86328125,-20.5078125
1770774297.7685425,,,-31.25,-46.875,12.6953125,-11.23046875
1770774297.77354,,,-57.12890625,-41.9921875,-122.0703125,-30.2734375
1770774297.7785375,,,-63.4765625,-27.34375,-297.36328125,-48.33984375
1770774297.783535,,,-41.015625,-19.53125,-189.94140625,-51.7578125
1770774297.7885325,,,-31.25,-31.73828125,-142.578125,-25.87890625
1770774297.79353,,,-40.52734375,-40.0390625,-393.5546875,-41.9921875
1770774297.7985275,,,-52.734375,-54.19921875,-833.49609375,-64.453125
1770774297.803525,,,-45.41015625,-45.8984375,-485.3515625,-58.10546875
1770774297.8085225,,,-36.1328125,-23.92578125,2.44140625,-43.9453125
1770774297.81352,,,-36.1328125,-37.109375,-230.95703125,-18.06640625
1770774297.8185174,,,-56.15234375,-49.8046875,-346.19140625,-40.52734375
1770774297.823515,,,-43.9453125,-43.45703125,-109.375,-60.05859375
1770774297.8271244,,,-24.4140625,-40.0390625,-97.65625,-41.9921875
1770774297.8307335,,,-43.45703125,-34.66796875,-565.4296875,-13.671875
1770774297.834343,,,-63.96484375,-33.203125,-656.25,-48.828125
1770774297.8379524,,,-62.98828125,-37.59765625,-135.7421875,-67.3828125
1770774297.8415616,,,-44.43359375,-60.546875,-77.63671875,-38.57421875
1770774297.845171,,,-38.0859375,-72.265625,-609.375,-34.1796875
1770774297.8487804,,,-49.8046875,-49.8046875,-651.85546875,-58.10546875
1770774297.8523896,,,-56.640625,-31.73828125,-144.53125,-45.41015625
1770774297.855999,,,-43.45703125,-37.59765625,-43.45703125,-37.109375
1770774297.8596084,,,-30.76171875,-49.31640625,-396.97265625,-42.48046875
1770774297.8632176,,,-37.59765625,-47.8515625,-364.2578125,-41.9921875
1770774297.866827,,,-56.15234375,-41.50390625,15.13671875,-55.6640625
1770774297.8706713,,,-30.76171875,-49.31640625,-62.5,-44.921875
1770774297.8745158,,,1.953125,-38.0859375,-188.96484375,-39.55078125
1770774297.87836,,,-7.32421875,-29.78515625,-29.296875,-28.80859375
1770774297.8822043,,,-33.69140625,-35.15625,68.359375,-48.828125
1770774297.8860488,,,-36.62109375,-36.1328125,-172.36328125,-71.2890625
1770774297.889893,,,-27.34375,-33.69140625,-622.0703125,-40.52734375
1770774297.8937373,,,-23.4375,-27.34375,-403.80859375,-37.59765625
1770774297.8975818,,,-34.66796875,-22.94921875,148.4375,-48.33984375
1770774297.901426,,,-51.7578125,-40.52734375,-130.859375,-62.98828125
1770774297.9052703,,,-37.59765625,-42.48046875,-489.74609375,-32.2265625
1770774297.9091148,,,-24.4140625,-29.78515625,-3.90625,-10.25390625
1770774297.912959,,,-31.73828125,-29.296875,241.2109375,-41.9921875
1770774297.9177573,,,-48.828125,-35.64453125,-67.3828125,-48.828125
1770774297.9225554,,,-33.203125,-38.57421875,-164.0625,-15.625
1770774297.9273536,,,-11.71875,-31.25,92.7734375,-3.41796875
1770774297.9321518,,,-38.57421875,-35.64453125,142.08984375,-26.85546875
1770774297.93695,,,-72.265625,-42.48046875,-175.29296875,-57.12890625
1770774297.9417481,,,-57.6171875,-41.9921875,-437.5,-38.0859375
1770774297.946546,,,-43.9453125,-44.921875,-254.8828125,-28.3203125
1770774297.9513443,,,-64.94140625,-41.9921875,2.9296875,-45.41015625
1770774297.9561424,,,-68.359375,-41.9921875,-533.203125,-67.3828125
1770774297.9609406,,,-66.40625,-46.875,-847.16796875,-64.453125
1770774297.9657388,,,-62.5,-48.33984375,-106.93359375,-60.05859375
1770774297.970537,,,-52.24609375,-42.48046875,84.9609375,-48.828125
1770774297.9731622,,,-61.5234375,-31.25,-148.4375,-52.734375
1770774297.9757874,,,-74.21875,-27.34375,-34.66796875,-80.078125
1770774297.9784126,,,-60.05859375,-38.0859375,168.9453125,-67.3828125
1770774297.9810379,,,-48.33984375,-49.8046875,55.6640625,-48.33984375
1770774297.983663,,,-73.2421875,-45.41015625,-160.15625,-69.82421875
1770774297.9862885,,,-88.37890625,-49.31640625,-256.8359375,-86.42578125
1770774297.9889138,,,-64.94140625,-31.25,-96.6796875,-64.453125
1770774297.991539,,,-51.7578125,-26.3671875,-105.95703125,-51.26953125
1770774297.9941642,,,-60.05859375,-41.50390625,-573.2421875,-42.48046875
1770774297.9967895,,,-77.63671875,-34.66796875,-302.24609375,-67.87109375
1770774297.9994147,,,-69.3359375,-28.80859375,62.98828125,-70.80078125
1770774298.00204,,,-49.31640625,-38.57421875,-182.6171875,-56.640625
1770774298.0058484,,,-73.2421875,-44.921875,-225.09765625,-94.7265625
1770774298.0096567,,,-99.12109375,-37.59765625,66.89453125,-111.81640625
1770774298.0134652,,,-103.02734375,-39.0625,98.6328125,-108.88671875
1770774298.0172737,,,-93.75,-51.26953125,-318.359375,-89.84375
1770774298.021082,,,-98.14453125,-49.31640625,-421.38671875,-87.40234375
1770774298.0248904,,,-130.37109375,-45.8984375,-179.6875,-125.48828125
1770774298.028699,,,-161.62109375,-50.78125,-196.2890625,-155.2734375
1770774298.0325072,,,-141.6015625,-53.22265625,-535.64453125,-143.5546875
1770774298.0363157,,,-140.625,-45.8984375,-554.19921875,-144.04296875
1770774298.0401242,,,-185.546875,-36.1328125,141.11328125,-181.15234375
1770774298.0439324,,,-208.984375,-50.29296875,123.53515625,-196.2890625
1770774298.047741,,,-206.54296875,-54.6875,-89.84375,-189.453125
1770774298.0515168,,,-207.51953125,-40.0390625,15.625,-218.75
1770774298.0552926,,,-241.2109375,-33.69140625,133.30078125,-253.90625
1770774298.0590684,,,-281.73828125,-51.7578125,-51.26953125,-243.1640625
1770774298.0628443,,,-287.59765625,-65.91796875,-284.66796875,-261.23046875
1770774298.06662,,,-277.34375,-59.5703125,-101.5625,-274.90234375
1770774298.070396,,,-282.2265625,-74.21875,-78.61328125,-270.5078125
1770774298.0741718,,,-325.1953125,-74.21875,-231.4453125,-299.8046875
1770774298.0779476,,,-316.89453125,-64.453125,-715.33203125,-299.8046875
1770774298.0817235,,,-260.25390625,-55.6640625,-450.1953125,-251.953125
1770774298.0854993,,,-248.53515625,-42.96875,183.59375,-257.8125
1770774298.0892751,,,-273.92578125,-61.03515625,-77.63671875,-273.92578125
1770774298.093051,,,-292.48046875,-68.84765625,-208.49609375,-241.2109375
1770774298.0967157,,,-252.44140625,-50.78125,0.48828125,-203.61328125
1770774298.1003804,,,-223.14453125,-59.5703125,73.73046875,-190.4296875
1770774298.1040452,,,-241.69921875,-67.3828125,-157.2265625,-204.58984375
1770774298.10771,,,-250.48828125,-54.19921875,-247.0703125,-229.98046875
1770774298.1113746,,,-217.28515625,-62.5,-138.671875,-223.6328125
1770774298.1150396,,,-188.96484375,-61.5234375,-253.41796875,-189.94140625
1770774298.1187043,,,-192.87109375,-64.94140625,-676.26953125,-157.71484375
1770774298.122369,,,-202.1484375,-71.2890625,-807.6171875,-166.9921875
1770774298.1260338,,,-182.12890625,-41.015625,-181.640625,-170.8984375
1770774298.1296985,,,-131.8359375,-30.76171875,4.39453125,-114.2578125
1770774298.1333632,,,-101.5625,-41.9921875,-218.75,-85.44921875
1770774298.137028,,,-109.86328125,-44.43359375,-225.09765625,-121.09375
1770774298.1452177,,,-104.4921875,-51.26953125,-56.15234375,-121.58203125
1770774298.1534073,,,-76.171875,-42.96875,-140.13671875,-59.5703125
1770774298.161597,,,-40.0390625,-25.390625,-302.24609375,-33.203125
1770774298.1697867,,,-35.15625,-33.203125,-181.15234375,-25.390625
1770774298.1779764,,,-36.62109375,-36.1328125,-134.27734375,-22.94921875
1770774298.186166,,,6.34765625,-33.203125,-390.13671875,-6.8359375
1770774298.1943557,,,38.57421875,-43.45703125,-771.97265625,9.765625
1770774298.2025454,,,35.15625,-41.9921875,-454.58984375,25.87890625
1770774298.210735,,,21.97265625,-27.83203125,-56.15234375,47.8515625
1770774298.2189248,,,58.59375,-27.83203125,-293.45703125,77.63671875
1770774298.2271144,,,90.8203125,-37.109375,-457.51953125,85.9375
1770774298.235304,,,81.0546875,-35.64453125,-171.875,76.171875
1770774298.2369838,,,66.89453125,-25.390625,13.671875,65.91796875
1770774298.2386637,,,88.37890625,-36.1328125,-456.54296875,91.30859375
1770774298.2403433,,,120.1171875,-30.76171875,-583.984375,110.3515625
1770774298.242023,,,120.1171875,-26.85546875,-131.34765625,100.5859375
1770774298.243703,,,98.6328125,-34.1796875,-160.15625,109.86328125
1770774298.2453825,,,97.16796875,-23.4375,-615.234375,109.375
1770774298.2470622,,,129.8828125,-20.99609375,-657.2265625,142.578125
1770774298.248742,,,116.69921875,-16.6015625,-146.484375,113.76953125
1770774298.2504218,,,94.7265625,-25.390625,-73.73046875,93.26171875
1770774298.2521014,,,84.47265625,-29.296875,-450.68359375,98.14453125
1770774298.2537813,,,86.9140625,-27.34375,-433.10546875,88.8671875
1770774298.255461,,,110.3515625,-39.0625,-14.16015625,95.21484375
1770774298.258168,,,108.88671875,-21.97265625,-87.890625,109.375
1770774298.2608747,,,73.73046875,-6.34765625,-512.6953125,99.609375
1770774298.2635818,,,70.3125,-2.44140625,-479.00390625,87.890625
1770774298.2662888,,,98.14453125,-5.859375,-72.75390625,85.9375
1770774298.2689955,,,105.46875,-20.01953125,-100.5859375,92.28515625
1770774298.2717025,,,80.078125,-39.55078125,-784.1796875,78.61328125
1770774298.2744095,,,73.73046875,-24.90234375,-777.83203125,71.77734375
1770774298.2771163,,,101.07421875,-12.20703125,-53.22265625,94.23828125
1770774298.2798233,,,102.05078125,-30.76171875,-169.43359375,100.09765625
1770774298.2825303,,,77.1484375,-26.3671875,-312.98828125,83.49609375
1770774298.285237,,,81.0546875,-24.90234375,-81.0546875,62.98828125
1770774298.287944,,,86.42578125,-23.4375,-14.16015625,79.58984375
1770774298.2916286,,,82.51953125,-34.66796875,-276.85546875,83.0078125
1770774298.2953134,,,70.80078125,-43.45703125,-370.60546875,65.4296875
1770774298.2989979,,,69.3359375,-26.3671875,-90.8203125,68.84765625
1770774298.3026824,,,89.35546875,-20.01953125,-42.96875,76.66015625
1770774298.306367,,,87.890625,-25.390625,-283.203125,81.54296875
1770774298.3100514,,,71.2890625,-30.2734375,-493.65234375,74.21875
1770774298.3137362,,,49.8046875,-33.203125,-456.54296875,63.4765625
1770774298.3174207,,,58.10546875,-20.99609375,-349.609375,61.03515625
1770774298.3211052,,,67.3828125,-31.73828125,-658.69140625,63.4765625
1770774298.32479,,,65.91796875,-49.8046875,-834.47265625,82.51953125
1770774298.3284745,,,48.828125,-38.0859375,-150.390625,57.12890625
1770774298.332159,,,40.0390625,-31.73828125,-0.48828125,26.85546875
1770774298.335901,,,62.01171875,-30.2734375,-211.42578125,38.57421875
1770774298.339643,,,57.12890625,-26.3671875,-76.171875,43.9453125
1770774298.343385,,,30.76171875,-27.83203125,40.0390625,16.11328125
1770774298.347127,,,20.99609375,-35.64453125,-155.2734375,32.71484375
1770774298.350869,,,38.0859375,-33.203125,-352.05078125,58.59375
1770774298.3546112,,,53.7109375,-48.33984375,-410.64453125,48.33984375
1770774298.3583531,,,42.48046875,-48.828125,-232.91015625,31.25
1770774298.362095,,,13.18359375,-49.31640625,-162.59765625,8.7890625
1770774298.365837,,,31.25,-52.734375,-747.0703125,50.29296875
1770774298.369579,,,41.9921875,-30.76171875,-557.6171875,53.22265625
1770774298.373321,,,33.69140625,-22.94921875,48.33984375,17.578125
1770774298.377063,,,26.85546875,-24.4140625,-309.5703125,12.20703125
1770774298.3808126,,,27.34375,-30.2734375,-563.4765625,10.7421875
1770774298.3845625,,,41.9921875,-33.69140625,-77.1484375,25.390625
1770774298.388312,,,34.1796875,-27.34375,40.52734375,29.78515625
1770774298.3920617,,,10.25390625,-26.85546875,-183.10546875,15.13671875
1770774298.3958113,,,2.9296875,-44.43359375,-255.37109375,-17.08984375
1770774298.399561,,,18.5546875,-65.91796875,-260.7421875,-14.6484375
1770774298.4033108,,,20.01953125,-51.7578125,-232.421875,16.6015625
1770774298.4070604,,,1.953125,-42.96875,-587.40234375,12.20703125
1770774298.41081,,,-16.11328125,-46.38671875,-702.63671875,-10.7421875
1770774298.4145598,,,-1.953125,-37.59765625,-63.96484375,6.34765625
1770774298.4183095,,,0.9765625,-41.50390625,-126.953125,22.94921875
1770774298.422059,,,-14.6484375,-42.48046875,-216.30859375,3.41796875
1770774298.4270406,,,-30.2734375,-42.96875,-224.12109375,-7.8125
1770774298.4320219,,,-25.87890625,-38.57421875,-128.41796875,-22.4609375
1770774298.4370034,,,-9.27734375,-36.1328125,-31.73828125,-9.765625
1770774298.4419847,,,-14.6484375,-44.921875,-315.91796875,2.9296875
1770774298.4469662,,,-37.59765625,-52.24609375,-229.98046875,-19.53125
1770774298.4519475,,,-37.59765625,-55.17578125,-165.52734375,-29.296875
1770774298.456929,,,-11.71875,-46.38671875,-314.94140625,-18.06640625
1770774298.4619105,,,-11.23046875,-38.0859375,-655.76171875,-13.18359375
1770774298.4668918,,,-31.73828125,-26.85546875,-325.68359375,-16.11328125
1770774298.4718733,,,-33.203125,-29.296875,91.796875,-34.1796875
1770774298.4768546,,,-12.6953125,-45.41015625,-211.42578125,-34.1796875
1770774298.481836,,,-0.48828125,-50.78125,-275.87890625,-23.92578125
1770774298.485682,,,-22.4609375,-44.921875,-42.96875,-42.48046875
1770774298.489528,,,-37.59765625,-37.59765625,-12.20703125,-56.15234375
1770774298.4933739,,,-1.46484375,-36.62109375,-230.46875,-22.4609375
1770774298.4972198,,,5.859375,-44.921875,-267.578125,-15.625
1770774298.5010657,,,-5.859375,-48.828125,-285.15625,-12.20703125
1770774298.5049114,,,-20.99609375,-48.828125,-389.6484375,-6.34765625
1770774298.5087574,,,-25.390625,-62.01171875,-704.1015625,-9.27734375
1770774298.5126033,,,-21.97265625,-50.78125,-716.30859375,-17.08984375
1770774298.5164492,,,-24.4140625,-36.1328125,-135.7421875,-35.15625
1770774298.5202951,,,-40.0390625,-35.15625,-9.27734375,-47.36328125
1770774298.524141,,,-50.78125,-44.921875,-531.25,-48.828125
1770774298.527987,,,-23.4375,-33.69140625,-492.67578125,-39.0625
1770774298.531569,,,-7.8125,-25.390625,90.33203125,-39.0625
1770774298.5351512,,,-29.78515625,-48.828125,-66.40625,-31.25
1770774298.5387332,,,-46.875,-56.640625,-260.25390625,-48.33984375
1770774298.5423152,,,-19.53125,-51.7578125,-75.68359375,-27.83203125
1770774298.5458975,,,-8.7890625,-56.640625,62.98828125,-22.4609375
1770774298.5494795,,,-37.109375,-55.17578125,-242.67578125,-30.2734375
1770774298.5530615,,,-52.24609375,-42.96875,-456.54296875,-16.11328125
1770774298.5566437,,,-26.85546875,-32.71484375,-288.57421875,-22.4609375
1770774298.5602257,,,0.0,-20.01953125,-108.3984375,-15.13671875
1770774298.5638077,,,2.9296875,-22.94921875,-156.25,3.90625
1770774298.56739,,,-22.4609375,-41.50390625,-854.00390625,2.44140625
1770774298.570972,,,-14.6484375,-25.390625,-562.5,-20.5078125
1770774298.5747309,,,15.625,-14.6484375,107.91015625,-21.484375
1770774298.5784895,,,14.16015625,-23.4375,-87.40234375,-9.765625
1770774298.5822484,,,2.44140625,-20.5078125,-189.94140625,-23.4375
1770774298.5860074,,,-0.48828125,-26.3671875,-8.30078125,-12.6953125
1770774298.589766,,,5.859375,-38.57421875,-3.41796875,6.34765625
1770774298.593525,,,-1.953125,-48.828125,-499.0234375,-13.18359375
1770774298.5972838,,,-7.32421875,-45.8984375,-579.1015625,-32.2265625
1770774298.6010425,,,-16.6015625,-49.8046875,-81.0546875,-20.99609375
1770774298.6048014,,,-3.41796875,-59.08203125,58.59375,-6.34765625
1770774298.6085603,,,5.859375,-49.8046875,-226.5625,-14.6484375
1770774298.612319,,,-7.8125,-28.80859375,-210.9375,1.46484375
1770774298.616078,,,-21.484375,-19.04296875,-77.1484375,-3.41796875
1770774298.6199112,,,-5.37109375,-28.80859375,-109.86328125,-5.37109375
1770774298.6237445,,,18.06640625,-25.87890625,-203.125,-4.8828125
1770774298.6275778,,,8.30078125,-18.5546875,-91.796875,-21.97265625
1770774298.6314108,,,-15.13671875,-34.66796875,88.8671875,-46.875
1770774298.6352441,,,-4.8828125,-43.45703125,-176.7578125,-44.921875
1770774298.6390774,,,20.99609375,-36.62109375,-411.62109375,-17.578125
1770774298.6429107,,,8.7890625,-24.90234375,-220.21484375,-1.953125
1770774298.646744,,,-32.2265625,-23.4375,138.18359375,-26.85546875
1770774298.6505773,,,-51.26953125,-33.203125,-77.1484375,-49.31640625
1770774298.6544104,,,-24.4140625,-32.2265625,-477.05078125,-24.4140625
1770774298.6582437,,,-5.37109375,-39.0625,-71.2890625,-25.87890625
1770774298.662077,,,-20.01953125,-47.8515625,215.33203125,-55.6640625
1770774298.6658711,,,-40.52734375,-32.2265625,-89.35546875,-60.546875
1770774298.6696653,,,-16.11328125,-27.34375,-112.79296875,-32.2265625
1770774298.6734595,,,6.34765625,-33.203125,48.33984375,-14.16015625
1770774298.6772537,,,-5.859375,-43.45703125,18.06640625,-34.1796875
1770774298.681048,,,-22.94921875,-48.33984375,-326.171875,-52.24609375
1770774298.6848419,,,-22.94921875,-33.203125,-602.5390625,-32.71484375
1770774298.688636,,,-9.765625,-24.4140625,-173.828125,-36.1328125
1770774298.6924303,,,-3.90625,-29.296875,175.29296875,-52.24609375
1770774298.6962245,,,-28.80859375,-42.96875,-399.4140625,-67.3828125
1770774298.7000186,,,-22.94921875,-30.2734375,-611.81640625,-45.8984375
1770774298.7038128,,,-1.953125,-25.390625,145.5078125,-6.8359375
1770774298.707607,,,-19.53125,-38.0859375,172.8515625,-8.30078125
1770774298.7137856,,,-33.69140625,-33.69140625,-27.34375,-16.6015625
1770774298.719964,,,-41.015625,-34.66796875,37.109375,-22.4609375
1770774298.7261424,,,-25.390625,-33.203125,211.42578125,-32.2265625
1770774298.732321,,,-13.671875,-38.0859375,164.55078125,-10.25390625
1770774298.7384996,,,-28.3203125,-41.9921875,-12.20703125,-12.20703125
1770774298.744678,,,-49.8046875,-46.38671875,-128.90625,-42.48046875
1770774298.7508564,,,-33.203125,-41.9921875,-174.8046875,-14.16015625
1770774298.757035,,,-18.06640625,-36.62109375,-167.48046875,6.34765625
1770774298.7632136,,,-39.55078125,-52.734375,-756.34765625,-0.48828125
1770774298.769392,,,-58.59375,-47.36328125,-590.8203125,-38.0859375
1770774298.7755704,,,-41.50390625,-21.484375,163.0859375,-35.15625
1770774298.781749,,,-18.5546875,-26.85546875,1.953125,0.48828125
1770774298.784174,,,-24.90234375,-43.45703125,-36.62109375,-14.16015625
1770774298.786599,,,-40.0390625,-49.31640625,182.6171875,-49.31640625
1770774298.7890239,,,-39.0625,-39.0625,152.34375,-55.17578125
1770774298.791449,,,-32.71484375,-32.71484375,-78.125,-45.41015625
1770774298.793874,,,-31.73828125,-39.0625,-67.87109375,-17.08984375
1770774298.796299,,,-41.9921875,-38.0859375,-88.8671875,-14.16015625
1770774298.798724,,,-47.36328125,-31.25,-176.7578125,-47.8515625
1770774298.801149,,,-24.90234375,-38.57421875,-522.4609375,-26.85546875
1770774298.8035738,,,-11.23046875,-37.109375,-507.32421875,-11.71875
1770774298.805999,,,-22.4609375,-29.78515625,77.1484375,-24.90234375
1770774298.808424,,,-47.36328125,-40.52734375,-92.7734375,-38.57421875
1770774298.810849,,,-33.203125,-44.43359375,-254.39453125,-23.4375
1770774298.8134418,,,-19.53125,-41.015625,4.39453125,-33.69140625
1770774298.8160348,,,-25.390625,-48.33984375,257.32421875,-48.33984375
1770774298.8186278,,,-52.734375,-53.22265625,141.11328125,-56.15234375
1770774298.8212206,,,-52.734375,-31.73828125,-407.71484375,-53.7109375
1770774298.8238134,,,-27.83203125,-21.97265625,-278.3203125,-29.296875
1770774298.8264065,,,-35.64453125,-33.69140625,87.890625,-27.34375
1770774298.8289995,,,-43.9453125,-42.96875,-153.80859375,-43.45703125
1770774298.8315923,,,-45.8984375,-36.1328125,-472.65625,-54.6875
1770774298.8341851,,,-38.0859375,-25.390625,-102.05078125,-44.43359375
1770774298.8367782,,,-28.3203125,-38.57421875,316.89453125,-24.90234375
1770774298.8393712,,,-48.33984375,-49.8046875,-128.90625,-27.83203125
1770774298.841964,,,-58.59375,-38.57421875,-334.9609375,-42.96875
1770774298.8468847,,,-29.78515625,-32.71484375,103.515625,-19.53125
1770774298.8518057,,,-17.08984375,-42.96875,124.51171875,-20.5078125
1770774298.8567266,,,-38.57421875,-46.875,-370.1171875,-44.43359375
1770774298.8616474,,,-54.19921875,-37.109375,-398.92578125,-50.29296875
1770774298.866568,,,-41.50390625,-37.109375,49.8046875,-65.91796875
1770774298.871489,,,-20.5078125,-51.7578125,49.8046875,-43.45703125
1770774298.87641,,,-22.94921875,-52.24609375,-482.91015625,-5.37109375
1770774298.8813307,,,-45.8984375,-44.921875,-632.8125,-27.83203125
1770774298.8862514,,,-38.0859375,-23.92578125,44.921875,-50.78125
1770774298.8911724,,,-21.484375,-24.90234375,148.92578125,-45.41015625
1770774298.8960934,,,-16.11328125,-29.296875,-41.9921875,-22.4609375
1770774298.901014,,,-37.59765625,-29.296875,23.4375,-28.3203125
1770774298.9049218,,,-58.10546875,-37.59765625,138.18359375,-44.921875
1770774298.9088295,,,-40.0390625,-45.8984375,23.92578125,-27.34375
1770774298.9127371,,,-25.87890625,-40.0390625,-98.6328125,-25.390625
1770774298.9166448,,,-44.921875,-42.48046875,21.484375,-26.85546875
1770774298.9205525,,,-61.03515625,-47.36328125,49.31640625,-55.17578125
1770774298.9244602,,,-51.26953125,-58.10546875,-177.734375,-52.24609375
1770774298.9283676,,,-45.41015625,-78.61328125,-672.36328125,-30.2734375
1770774298.9322753,,,-54.6875,-60.05859375,-445.3125,-45.8984375
1770774298.936183,,,-75.1953125,-42.96875,175.29296875,-95.21484375
1770774298.9400907,,,-50.78125,-54.6875,-70.3125,-72.265625
1770774298.9439983,,,-20.01953125,-54.19921875,-311.5234375,-17.578125
1770774298.947906,,,-32.71484375,-38.57421875,112.3046875,-33.69140625
1770774298.9515896,,,-63.4765625,-42.96875,233.88671875,-66.40625
1770774298.9552732,,,-51.7578125,-49.31640625,-71.77734375,-78.61328125
1770774298.9589565,,,-33.203125,-41.9921875,-60.546875,-37.109375
1770774298.96264,,,-39.0625,-44.921875,204.1015625,-31.73828125
1770774298.9663236,,,-52.24609375,-52.734375,185.546875,-57.6171875
1770774298.970007,,,-67.87109375,-55.17578125,-231.4453125,-57.12890625
1770774298.9736905,,,-44.43359375,-52.734375,-330.078125,-48.33984375
1770774298.977374,,,-29.78515625,-36.1328125,70.80078125,-34.66796875
1770774298.9810576,,,-44.43359375,-34.1796875,163.57421875,-29.78515625
1770774298.9847412,,,-53.7109375,-50.78125,-513.671875,-49.8046875
1770774298.9884245,,,-33.69140625,-42.96875,-728.02734375,-36.1328125
1770774298.992108,,,-18.5546875,-24.4140625,46.38671875,-8.7890625
1770774298.9958572,,,-25.390625,-33.203125,83.49609375,-16.6015625
1770774298.9996064,,,-39.0625,-42.96875,-159.66796875,-31.73828125
1770774299.0033555,,,-31.73828125,-34.1796875,-19.53125,-25.87890625
1770774299.0071046,,,-1.953125,-28.3203125,162.109375,-15.625
1770774299.0108538,,,0.0,-31.73828125,71.77734375,-32.71484375
1770774299.0146031,,,-30.2734375,-29.78515625,-254.39453125,-38.0859375
1770774299.0183523,,,-46.38671875,-37.109375,-279.296875,-28.3203125
1770774299.0221014,,,-31.25,-54.19921875,79.1015625,-21.97265625
1770774299.0258505,,,-26.3671875,-47.8515625,14.16015625,-17.08984375
1770774299.0295997,,,-46.875,-33.203125,-523.92578125,-59.08203125
1770774299.0333488,,,-55.17578125,-29.296875,-257.32421875,-73.2421875
1770774299.037098,,,-34.1796875,-35.64453125,206.0546875,-45.41015625
1770774299.04203,,,-10.25390625,-44.921875,-224.609375,-28.3203125
1770774299.046962,,,-30.76171875,-52.734375,-405.76171875,-40.0390625
1770774299.0518942,,,-59.5703125,-43.45703125,88.8671875,-55.17578125
