timestamp,marker_code,marker_label,EEG_0,EEG_1,EEG_2,EEG_3
1770773150.2957635,,,-90.33203125,-44.921875,-363.76953125,-19.04296875
1770773150.3007038,,,-78.125,-48.828125,-394.04296875,-11.71875
1770773150.3056443,,,-92.7734375,-44.43359375,-375.48828125,-35.15625
1770773150.3105845,,,-90.33203125,-47.8515625,-639.6484375,-26.85546875
1770773150.315525,,,-72.265625,-50.78125,-840.33203125,-8.30078125
1770773150.3204653,,,-63.96484375,-48.828125,-710.9375,-10.25390625
1770773150.3254058,,,-77.1484375,-54.6875,-741.69921875,-28.80859375
1770773150.3303463,,,-96.6796875,-58.59375,-544.921875,-34.1796875
1770773150.3352866,,,-83.0078125,-59.5703125,-398.92578125,-8.7890625
1770773150.3402271,,,-58.59375,-55.17578125,-392.08984375,-3.90625
1770773150.3451674,,,-65.4296875,-51.26953125,-307.12890625,-15.13671875
1770773150.350108,,,-84.9609375,-54.19921875,-685.546875,-5.859375
1770773150.3549688,,,-75.68359375,-51.26953125,-874.0234375,6.34765625
1770773150.3598297,,,-49.31640625,-51.26953125,-425.78125,-9.765625
1770773150.3646908,,,-49.31640625,-54.6875,-326.171875,-25.390625
1770773150.3695517,,,-74.70703125,-53.7109375,-371.09375,-41.9921875
1770773150.3744125,,,-80.078125,-53.22265625,-403.80859375,-31.25
1770773150.3792734,,,-68.359375,-55.6640625,-593.75,-24.4140625
1770773150.3841343,,,-57.6171875,-55.6640625,-753.41796875,-30.2734375
1770773150.3889952,,,-83.49609375,-52.734375,-865.72265625,-49.31640625
1770773150.3938563,,,-86.9140625,-53.22265625,-629.39453125,-58.59375
1770773150.3987172,,,-62.01171875,-49.31640625,-326.66015625,-28.80859375
1770773150.403578,,,-41.50390625,-45.8984375,-327.1484375,-16.11328125
1770773150.408439,,,-33.69140625,-43.9453125,-373.046875,-25.87890625
1770773150.4087832,,,-36.62109375,-40.0390625,-408.203125,-36.62109375
1770773150.4091272,,,-28.3203125,-35.15625,-354.4921875,-25.390625
1770773150.4094715,,,-5.37109375,-38.0859375,-535.15625,7.32421875
1770773150.4098155,,,-11.71875,-40.52734375,-947.75390625,-0.48828125
1770773150.4101598,,,-37.59765625,-35.64453125,-709.47265625,-39.55078125
1770773150.4105039,,,-22.94921875,-39.55078125,-532.71484375,-32.2265625
1770773150.4108481,,,-15.625,-47.36328125,-622.55859375,-28.80859375
1770773150.4111924,,,-4.8828125,-48.33984375,-445.80078125,-31.73828125
1770773150.4115365,,,-16.11328125,-52.734375,-376.953125,-39.55078125
1770773150.4118807,,,-32.71484375,-60.546875,-301.7578125,-41.9921875
1770773150.4122248,,,-18.06640625,-62.5,-666.9921875,7.32421875
1770773150.412569,,,-6.34765625,-54.6875,-832.51953125,3.90625
1770773150.4197876,,,-24.90234375,-46.38671875,-370.60546875,-39.55078125
1770773150.427006,,,-34.1796875,-44.43359375,-293.9453125,-23.4375
1770773150.4342246,,,-24.4140625,-46.38671875,-316.89453125,-10.25390625
1770773150.441443,,,-20.01953125,-45.41015625,-301.26953125,-11.71875
1770773150.4486616,,,-28.3203125,-41.9921875,-334.47265625,-20.5078125
1770773150.45588,,,-48.33984375,-44.921875,-580.078125,-25.390625
1770773150.4630985,,,-51.26953125,-44.921875,-921.38671875,-2.9296875
1770773150.4703171,,,-46.875,-47.36328125,-886.23046875,-12.6953125
1770773150.4775355,,,-27.34375,-46.875,-416.9921875,-42.48046875
1770773150.484754,,,-38.0859375,-43.9453125,-229.98046875,-34.1796875
1770773150.4919724,,,-56.640625,-50.29296875,-368.1640625,-21.484375
1770773150.499191,,,-40.0390625,-51.7578125,-382.32421875,-14.6484375
1770773150.5021842,,,-34.66796875,-45.8984375,-221.19140625,-17.08984375
1770773150.5051775,,,-44.921875,-52.24609375,-442.3828125,-26.85546875
1770773150.5081706,,,-68.84765625,-60.546875,-741.69921875,-39.0625
1770773150.5111637,,,-69.3359375,-61.03515625,-439.453125,-38.57421875
1770773150.5141568,,,-46.875,-60.05859375,-299.8046875,-21.97265625
1770773150.51715,,,-64.453125,-62.5,-555.17578125,-26.85546875
1770773150.5201433,,,-82.51953125,-67.87109375,-641.11328125,-33.69140625
1770773150.5231364,,,-72.75390625,-61.5234375,-433.59375,-21.97265625
1770773150.5261295,,,-56.640625,-49.31640625,-217.7734375,-8.7890625
1770773150.5291228,,,-58.10546875,-52.24609375,-583.0078125,3.90625
1770773150.532116,,,-84.47265625,-55.6640625,-991.69921875,-12.6953125
1770773150.535109,,,-81.0546875,-52.24609375,-542.96875,-22.94921875
1770773150.537247,,,-49.8046875,-50.29296875,-222.65625,0.9765625
1770773150.539385,,,-43.45703125,-51.7578125,-220.21484375,5.37109375
1770773150.541523,,,-68.359375,-50.78125,-288.0859375,0.48828125
1770773150.543661,,,-69.82421875,-48.828125,-270.5078125,0.9765625
1770773150.545799,,,-59.5703125,-54.6875,-328.125,19.04296875
1770773150.547937,,,-70.80078125,-56.640625,-707.03125,18.06640625
1770773150.550075,,,-92.28515625,-61.03515625,-789.55078125,-6.34765625
1770773150.552213,,,-97.16796875,-63.96484375,-605.95703125,-11.71875
1770773150.554351,,,-81.54296875,-60.05859375,-371.58203125,-3.90625
1770773150.556489,,,-68.84765625,-62.98828125,-266.6015625,-11.23046875
1770773150.5586271,,,-68.84765625,-63.4765625,-335.44921875,-17.578125
1770773150.560765,,,-93.26171875,-61.5234375,-326.66015625,-19.53125
1770773150.5645182,,,-88.8671875,-62.5,-412.59765625,-15.13671875
1770773150.5682712,,,-70.80078125,-70.3125,-908.203125,15.13671875
1770773150.5720243,,,-87.40234375,-72.265625,-823.2421875,-15.13671875
1770773150.5757773,,,-97.16796875,-66.89453125,-337.890625,-44.43359375
1770773150.5795305,,,-83.0078125,-64.94140625,-526.85546875,-10.7421875
1770773150.5832837,,,-65.4296875,-74.21875,-827.1484375,-3.41796875
1770773150.5870366,,,-55.6640625,-76.171875,-594.23828125,-21.97265625
1770773150.5907898,,,-65.4296875,-64.94140625,-292.96875,-39.55078125
1770773150.5945427,,,-78.61328125,-66.89453125,-595.21484375,-15.625
1770773150.598296,,,-66.40625,-62.98828125,-943.359375,1.953125
1770773150.6020489,,,-52.24609375,-52.24609375,-486.81640625,-32.2265625
1770773150.605802,,,-69.3359375,-55.6640625,-173.828125,-41.50390625
1770773150.6096704,,,-97.16796875,-62.98828125,-615.72265625,-33.203125
1770773150.6135387,,,-92.28515625,-61.5234375,-713.8671875,-28.3203125
1770773150.617407,,,-68.359375,-63.4765625,-257.32421875,-24.90234375
1770773150.6212754,,,-72.265625,-66.40625,-272.4609375,-26.85546875
1770773150.6251438,,,-98.6328125,-68.84765625,-494.140625,-44.921875
1770773150.6290119,,,-92.7734375,-72.75390625,-639.6484375,-39.0625
1770773150.6328802,,,-69.82421875,-66.40625,-517.08984375,-22.4609375
1770773150.6367486,,,-64.94140625,-69.3359375,-303.7109375,-35.64453125
1770773150.640617,,,-83.0078125,-71.2890625,-724.609375,-36.62109375
1770773150.6444852,,,-94.7265625,-62.5,-709.47265625,-43.9453125
1770773150.6483536,,,-64.94140625,-62.5,-170.8984375,-46.875
1770773150.652222,,,-58.10546875,-67.3828125,-291.50390625,-39.55078125
1770773150.6571562,,,-84.47265625,-67.3828125,-592.28515625,-46.38671875
1770773150.6620903,,,-82.51953125,-65.4296875,-530.76171875,-48.828125
1770773150.6670246,,,-61.03515625,-59.08203125,-221.6796875,-43.45703125
1770773150.671959,,,-43.45703125,-57.6171875,-383.7890625,-21.97265625
1770773150.6768932,,,-61.5234375,-68.84765625,-752.44140625,-28.80859375
1770773150.6818275,,,-82.51953125,-72.265625,-675.29296875,-48.33984375
1770773150.6867616,,,-66.40625,-69.3359375,-411.1328125,-42.96875
1770773150.691696,,,-43.45703125,-62.5,-481.93359375,-12.6953125
1770773150.6966302,,,-59.08203125,-57.6171875,-963.8671875,-11.23046875
1770773150.7015643,,,-85.9375,-50.78125,-538.57421875,-50.78125
1770773150.7064986,,,-61.03515625,-45.8984375,-112.3046875,-26.3671875
1770773150.711433,,,-41.50390625,-49.8046875,-339.84375,-3.90625
1770773150.715191,,,-53.7109375,-52.24609375,-311.5234375,-15.13671875
1770773150.7189488,,,-70.3125,-55.6640625,-154.296875,-23.92578125
1770773150.7227068,,,-83.0078125,-60.05859375,-217.28515625,-14.6484375
1770773150.7264645,,,-78.125,-60.05859375,-355.46875,-10.25390625
1770773150.7302225,,,-68.84765625,-62.98828125,-432.6171875,-21.484375
1770773150.7339804,,,-83.984375,-67.87109375,-552.734375,-41.50390625
1770773150.7377384,,,-99.609375,-67.3828125,-635.7421875,-43.9453125
1770773150.7414963,,,-93.26171875,-62.5,-637.6953125,-40.52734375
1770773150.7452543,,,-85.9375,-63.96484375,-410.64453125,-46.875
1770773150.749012,,,-87.40234375,-67.3828125,-253.41796875,-53.7109375
1770773150.75277,,,-91.796875,-63.96484375,-378.90625,-56.15234375
1770773150.756528,,,-90.33203125,-60.546875,-854.98046875,-18.5546875
1770773150.7589667,,,-68.359375,-59.08203125,-810.05859375,-25.390625
1770773150.7614055,,,-52.24609375,-53.22265625,-279.296875,-60.546875
1770773150.7638443,,,-69.3359375,-50.29296875,-443.359375,-45.8984375
1770773150.766283,,,-75.68359375,-57.12890625,-516.6015625,-30.76171875
1770773150.7687218,,,-53.22265625,-59.5703125,-254.39453125,-26.85546875
1770773150.7711604,,,-44.921875,-55.6640625,-412.59765625,-25.390625
1770773150.7735991,,,-77.1484375,-57.6171875,-783.203125,-37.109375
1770773150.776038,,,-93.26171875,-55.17578125,-735.3515625,-37.109375
1770773150.7784767,,,-67.87109375,-51.26953125,-483.3984375,-23.92578125
1770773150.7809155,,,-49.8046875,-51.26953125,-290.52734375,-29.78515625
1770773150.7833543,,,-70.80078125,-55.6640625,-562.98828125,-20.99609375
1770773150.785793,,,-93.75,-58.10546875,-996.58203125,-12.20703125
1770773150.7908523,,,-86.9140625,-54.6875,-513.18359375,-36.1328125
1770773150.7959118,,,-55.6640625,-51.7578125,-173.33984375,-25.390625
1770773150.800971,,,-62.5,-47.8515625,-462.40234375,-28.3203125
1770773150.8060303,,,-79.58984375,-44.921875,-437.98828125,-38.57421875
1770773150.8110898,,,-63.4765625,-47.8515625,-243.1640625,-33.203125
1770773150.816149,,,-58.59375,-47.36328125,-422.36328125,-36.62109375
1770773150.8212082,,,-85.44921875,-54.19921875,-810.546875,-37.59765625
1770773150.8262677,,,-113.76953125,-56.640625,-764.16015625,-72.75390625
1770773150.831327,,,-101.07421875,-52.734375,-251.953125,-76.171875
1770773150.8363862,,,-86.42578125,-61.03515625,-270.99609375,-46.875
1770773150.8414457,,,-86.9140625,-63.4765625,-468.26171875,-56.15234375
1770773150.846505,,,-111.328125,-58.10546875,-510.7421875,-70.3125
1770773150.8500843,,,-115.72265625,-54.19921875,-442.87109375,-67.87109375
1770773150.8536634,,,-88.8671875,-51.26953125,-497.0703125,-39.55078125
1770773150.8572426,,,-79.1015625,-53.22265625,-720.703125,-37.109375
1770773150.860822,,,-97.65625,-59.08203125,-461.9140625,-82.03125
1770773150.8644013,,,-101.5625,-61.03515625,-368.65234375,-79.58984375
1770773150.8679805,,,-87.890625,-65.91796875,-741.69921875,-38.0859375
1770773150.8715596,,,-74.21875,-66.40625,-824.70703125,-35.15625
1770773150.875139,,,-80.56640625,-70.3125,-394.53125,-65.91796875
1770773150.8787184,,,-94.7265625,-74.70703125,-219.23828125,-61.5234375
1770773150.8822975,,,-80.56640625,-70.3125,-625.0,-20.5078125
1770773150.8858767,,,-78.61328125,-67.87109375,-919.921875,-17.578125
1770773150.889456,,,-85.9375,-61.5234375,-441.40625,-43.45703125
1770773150.8934119,,,-93.75,-53.22265625,-258.30078125,-37.59765625
1770773150.897368,,,-94.23828125,-53.7109375,-464.35546875,-36.1328125
1770773150.9013238,,,-71.77734375,-53.22265625,-441.89453125,-28.3203125
1770773150.9052796,,,-68.359375,-55.17578125,-460.44921875,-35.64453125
1770773150.9092357,,,-83.49609375,-59.08203125,-463.37890625,-60.546875
1770773150.9131916,,,-83.0078125,-54.6875,-762.6953125,-32.2265625
1770773150.9171474,,,-75.1953125,-54.6875,-865.72265625,-29.78515625
1770773150.9211035,,,-56.15234375,-54.19921875,-339.35546875,-46.875
1770773150.9250593,,,-52.734375,-51.26953125,-332.03125,-40.52734375
1770773150.9290152,,,-77.1484375,-51.26953125,-559.5703125,-41.50390625
1770773150.9329712,,,-79.58984375,-50.78125,-407.2265625,-40.0390625
1770773150.936927,,,-51.7578125,-46.875,-239.74609375,-27.83203125
1770773150.941782,,,-43.45703125,-42.96875,-494.140625,-13.18359375
1770773150.9466372,,,-56.640625,-45.41015625,-685.546875,-19.53125
1770773150.951492,,,-52.734375,-49.8046875,-444.3359375,-18.06640625
1770773150.956347,,,-37.59765625,-52.734375,-306.640625,-13.18359375
1770773150.9612021,,,-48.828125,-54.19921875,-524.90234375,-25.390625
1770773150.966057,,,-76.171875,-51.7578125,-821.77734375,-38.57421875
1770773150.970912,,,-78.61328125,-43.45703125,-779.296875,-31.73828125
1770773150.9757671,,,-59.08203125,-41.50390625,-559.5703125,-26.3671875
1770773150.980622,,,-41.9921875,-43.9453125,-630.859375,-12.6953125
1770773150.985477,,,-73.2421875,-46.875,-997.55859375,-19.53125
1770773150.9903321,,,-92.28515625,-46.875,-668.45703125,-44.43359375
1770773150.995187,,,-60.05859375,-51.7578125,-308.10546875,-12.6953125
1770773150.998909,,,-44.43359375,-56.15234375,-489.74609375,-0.9765625
1770773151.002631,,,-49.8046875,-43.45703125,-543.45703125,-28.80859375
1770773151.006353,,,-68.84765625,-47.8515625,-391.6015625,-45.8984375
1770773151.010075,,,-78.125,-52.734375,-385.25390625,-39.55078125
1770773151.013797,,,-43.45703125,-45.41015625,-542.48046875,-30.2734375
1770773151.017519,,,-55.17578125,-43.9453125,-755.859375,-40.52734375
1770773151.021241,,,-86.42578125,-44.43359375,-716.30859375,-73.2421875
1770773151.024963,,,-69.3359375,-42.96875,-502.9296875,-66.89453125
1770773151.0286849,,,-63.96484375,-41.9921875,-769.53125,-39.55078125
1770773151.032407,,,-63.4765625,-44.921875,-709.47265625,-61.5234375
1770773151.036129,,,-80.56640625,-41.015625,-529.78515625,-91.796875
1770773151.039851,,,-96.6796875,-44.43359375,-659.1796875,-79.1015625
1770773151.0424566,,,-78.125,-47.36328125,-779.78515625,-56.640625
1770773151.0450625,,,-66.89453125,-41.015625,-575.1953125,-66.89453125
1770773151.0476682,,,-78.125,-44.43359375,-291.9921875,-67.3828125
1770773151.050274,,,-83.984375,-43.9453125,-549.31640625,-55.6640625
1770773151.0528798,,,-65.91796875,-41.50390625,-639.6484375,-42.48046875
1770773151.0554855,,,-45.8984375,-45.8984375,-662.59765625,-37.59765625
1770773151.0580912,,,-53.7109375,-46.875,-617.1875,-55.17578125
1770773151.060697,,,-62.01171875,-45.41015625,-668.45703125,-43.9453125
1770773151.0633028,,,-51.7578125,-43.45703125,-817.3828125,-23.4375
1770773151.0659084,,,-31.25,-48.33984375,-431.15234375,-34.66796875
1770773151.0685143,,,-15.625,-51.7578125,-276.3671875,-34.1796875
1770773151.07112,,,-30.76171875,-56.640625,-699.21875,-22.4609375
1770773151.0748472,,,-32.2265625,-59.08203125,-813.96484375,-27.83203125
1770773151.0785747,,,-9.765625,-51.26953125,-429.6875,-40.0390625
1770773151.0823019,,,-16.6015625,-48.33984375,-558.59375,-34.1796875
1770773151.086029,,,-46.875,-52.734375,-812.01171875,-44.43359375
1770773151.0897563,,,-62.5,-52.734375,-719.23828125,-51.26953125
1770773151.0934834,,,-46.875,-52.734375,-597.16796875,-33.69140625
1770773151.097211,,,-28.3203125,-48.33984375,-611.328125,-22.4609375
1770773151.100938,,,-40.0390625,-41.9921875,-821.2890625,-18.06640625
1770773151.1046653,,,-61.03515625,-44.921875,-751.46484375,-37.109375
1770773151.1083927,,,-44.43359375,-46.38671875,-252.9296875,-43.9453125
1770773151.11212,,,-21.484375,-44.43359375,-294.921875,-27.83203125
1770773151.115847,,,-23.92578125,-41.015625,-498.046875,-29.296875
1770773151.120849,,,-47.36328125,-42.96875,-360.3515625,-35.15625
1770773151.1258507,,,-41.015625,-42.96875,-206.0546875,-21.484375
1770773151.1308527,,,-15.625,-36.1328125,-399.90234375,10.25390625
1770773151.1358545,,,-22.94921875,-39.0625,-525.87890625,2.9296875
1770773151.1408563,,,-46.875,-43.9453125,-381.34765625,-19.04296875
1770773151.145858,,,-43.9453125,-38.0859375,-534.1796875,-13.671875
1770773151.1508598,,,-6.8359375,-37.59765625,-785.15625,5.859375
1770773151.1558616,,,-1.953125,-36.1328125,-999.0234375,9.27734375
1770773151.1608636,,,-34.66796875,-32.71484375,-647.94921875,-42.48046875
1770773151.1658654,,,-55.17578125,-34.66796875,-270.01953125,-40.0390625
1770773151.1708672,,,-44.43359375,-33.203125,-448.73046875,-8.7890625
1770773151.175869,,,-11.71875,-26.85546875,-402.34375,3.41796875
1770773151.179477,,,-25.390625,-29.296875,-198.73046875,-8.7890625
1770773151.1830847,,,-38.57421875,-30.76171875,-234.375,-16.6015625
1770773151.1866927,,,-40.52734375,-34.1796875,-459.9609375,-1.953125
1770773151.1903007,,,-33.69140625,-39.55078125,-440.91796875,-15.13671875
1770773151.1939085,,,-23.4375,-39.55078125,-264.6484375,-26.85546875
1770773151.1975164,,,-43.9453125,-40.52734375,-466.30859375,-18.5546875
1770773151.2011244,,,-60.546875,-43.9453125,-855.46875,-9.27734375
1770773151.2047322,,,-51.7578125,-42.96875,-643.06640625,-25.390625
1770773151.2083402,,,-36.62109375,-34.1796875,-224.12109375,-30.76171875
1770773151.2119482,,,-56.15234375,-40.0390625,-438.96484375,-25.87890625
1770773151.215556,,,-70.80078125,-46.875,-828.125,-32.2265625
1770773151.219164,,,-57.12890625,-46.38671875,-599.12109375,-37.59765625
1770773151.224196,,,-34.66796875,-43.45703125,-104.00390625,-35.15625
1770773151.229228,,,-41.015625,-40.52734375,-304.6875,-30.76171875
1770773151.23426,,,-51.26953125,-47.8515625,-482.91015625,-27.83203125
1770773151.2392921,,,-25.390625,-51.26953125,-220.703125,-29.296875
1770773151.2443242,,,5.37109375,-46.38671875,-84.9609375,-21.97265625
1770773151.2493563,,,-1.46484375,-43.45703125,-528.3203125,-7.32421875
1770773151.2543886,,,-34.1796875,-46.38671875,-785.64453125,-16.6015625
1770773151.2594206,,,-36.62109375,-42.96875,-283.203125,-28.80859375
1770773151.2644527,,,-12.20703125,-44.43359375,-41.9921875,-11.23046875
1770773151.2694848,,,-15.13671875,-51.7578125,-369.62890625,-4.8828125
1770773151.2745168,,,-38.0859375,-47.36328125,-470.21484375,-15.625
1770773151.279549,,,-43.45703125,-47.8515625,-144.53125,-10.25390625
1770773151.2823346,,,-30.76171875,-52.24609375,-141.11328125,-3.90625
1770773151.2851205,,,-35.15625,-51.26953125,-598.6328125,-4.8828125
1770773151.2879062,,,-62.98828125,-52.734375,-577.1484375,-32.2265625
1770773151.2906919,,,-67.87109375,-53.7109375,-106.4453125,-36.1328125
1770773151.2934778,,,-44.43359375,-51.7578125,-131.8359375,-19.04296875
1770773151.2962635,,,-29.296875,-55.6640625,-469.23828125,-25.390625
1770773151.2990491,,,-38.57421875,-57.6171875,-502.44140625,-45.41015625
1770773151.301835,,,-54.6875,-55.17578125,-172.8515625,-51.26953125
1770773151.3046207,,,-54.19921875,-58.59375,-103.515625,-25.87890625
1770773151.3074064,,,-48.33984375,-61.03515625,-594.23828125,-7.32421875
1770773151.3101923,,,-67.87109375,-59.5703125,-635.7421875,-30.76171875
1770773151.312978,,,-78.125,-52.24609375,-99.12109375,-36.1328125
1770773151.316582,,,-57.12890625,-48.828125,-138.18359375,-0.9765625
1770773151.3201857,,,-37.109375,-57.6171875,-307.6171875,4.8828125
1770773151.3237896,,,-34.66796875,-57.6171875,-112.3046875,-12.6953125
1770773151.3273933,,,-46.38671875,-49.8046875,-16.6015625,-21.97265625
1770773151.3309972,,,-47.8515625,-56.640625,-338.37890625,0.0
1770773151.3346012,,,-31.73828125,-63.96484375,-787.109375,5.37109375
1770773151.3382049,,,-35.64453125,-59.08203125,-482.421875,-24.90234375
1770773151.3418088,,,-53.7109375,-54.19921875,-3.90625,-46.38671875
1770773151.3454125,,,-41.50390625,-52.24609375,-379.8828125,-22.94921875
1770773151.3490164,,,-30.76171875,-58.10546875,-722.65625,-7.8125
1770773151.3526201,,,-24.4140625,-62.01171875,-160.15625,-28.3203125
1770773151.356224,,,-41.015625,-61.5234375,14.16015625,-38.57421875
1770773151.3599353,,,-74.21875,-64.453125,-216.796875,-44.43359375
1770773151.3636465,,,-71.2890625,-68.84765625,-202.63671875,-34.1796875
1770773151.3673575,,,-51.7578125,-67.3828125,-56.640625,-34.66796875
1770773151.3710687,,,-52.24609375,-64.94140625,-96.6796875,-41.9921875
1770773151.37478,,,-61.03515625,-62.01171875,-332.03125,-39.55078125
1770773151.378491,,,-58.10546875,-65.91796875,-538.0859375,-32.71484375
1770773151.3822021,,,-42.48046875,-68.359375,-386.71875,-33.69140625
1770773151.3859134,,,-29.78515625,-61.03515625,-227.05078125,-39.55078125
1770773151.3896246,,,-44.43359375,-60.05859375,-732.91015625,-23.4375
1770773151.3933358,,,-60.546875,-59.08203125,-812.5,-19.04296875
1770773151.3970468,,,-36.62109375,-50.78125,-98.6328125,-25.87890625
1770773151.400758,,,-8.30078125,-51.26953125,-94.7265625,-2.44140625
1770773151.404509,,,-35.64453125,-59.5703125,-342.7734375,-9.765625
1770773151.4082603,,,-45.8984375,-57.12890625,-156.25,-18.06640625
1770773151.4120116,,,-24.4140625,-51.26953125,-12.20703125,-8.7890625
1770773151.4157627,,,-19.53125,-55.17578125,-222.16796875,-6.8359375
1770773151.4195137,,,-43.45703125,-61.5234375,-393.06640625,-22.94921875
1770773151.423265,,,-58.10546875,-64.453125,-357.91015625,-31.25
1770773151.4270163,,,-52.24609375,-65.4296875,-303.22265625,-27.83203125
1770773151.4307673,,,-28.3203125,-61.03515625,-489.74609375,-17.578125
1770773151.4345183,,,-31.25,-60.05859375,-754.8828125,-24.4140625
1770773151.4382696,,,-65.4296875,-62.5,-270.01953125,-62.5
1770773151.442021,,,-67.87109375,-64.453125,21.97265625,-52.24609375
1770773151.445772,,,-55.17578125,-69.3359375,-346.6796875,-32.71484375
1770773151.4506838,,,-49.8046875,-63.4765625,-363.28125,-52.24609375
1770773151.4555955,,,-54.19921875,-51.7578125,-47.36328125,-59.08203125
1770773151.4605074,,,-62.5,-49.31640625,-62.5,-41.015625
1770773151.4654193,,,-66.40625,-56.640625,-320.3125,-40.52734375
1770773151.4703312,,,-52.734375,-59.5703125,-311.5234375,-50.78125
1770773151.475243,,,-56.15234375,-58.10546875,-306.15234375,-59.5703125
1770773151.4801548,,,-60.546875,-57.6171875,-419.921875,-62.01171875
1770773151.4850667,,,-49.8046875,-51.7578125,-721.6796875,-31.73828125
1770773151.4899786,,,-36.62109375,-47.8515625,-655.2734375,-29.78515625
1770773151.4948902,,,-40.52734375,-50.78125,-96.19140625,-61.5234375
1770773151.499802,,,-51.26953125,-57.6171875,-168.45703125,-52.24609375
1770773151.504714,,,-45.41015625,-53.22265625,-299.31640625,-27.34375
1770773151.507388,,,-35.15625,-49.31640625,-152.83203125,-31.73828125
1770773151.5100622,,,-22.94921875,-51.7578125,-74.70703125,-31.25
1770773151.5127366,,,-43.9453125,-52.734375,-385.25390625,-28.80859375
1770773151.5154107,,,-64.453125,-52.24609375,-582.03125,-38.0859375
1770773151.5180848,,,-41.015625,-50.78125,-397.4609375,-40.52734375
1770773151.520759,,,-30.2734375,-53.22265625,-421.875,-45.41015625
1770773151.5234332,,,-47.8515625,-56.640625,-693.84765625,-46.38671875
1770773151.5261073,,,-55.6640625,-54.6875,-818.359375,-40.52734375
1770773151.5287814,,,-36.62109375,-52.24609375,-316.89453125,-41.9921875
1770773151.5314555,,,-12.20703125,-52.734375,28.3203125,-33.69140625
1770773151.5341299,,,-30.2734375,-53.22265625,-462.40234375,-20.01953125
1770773151.536804,,,-55.6640625,-57.12890625,-768.5546875,-25.390625
1770773151.5416994,,,-34.1796875,-57.6171875,-182.12890625,-37.59765625
1770773151.546595,,,-14.16015625,-62.98828125,-35.64453125,-20.01953125
1770773151.5514905,,,-40.52734375,-69.3359375,-315.91796875,-29.296875
1770773151.556386,,,-55.6640625,-65.4296875,-349.12109375,-41.015625
1770773151.5612814,,,-37.59765625,-62.98828125,-186.03515625,-24.4140625
1770773151.566177,,,-25.87890625,-66.89453125,-284.66796875,-19.04296875
1770773151.5710726,,,-36.62109375,-70.80078125,-748.53515625,-16.11328125
1770773151.575968,,,-57.6171875,-68.359375,-796.875,-37.59765625
1770773151.5808635,,,-54.19921875,-59.5703125,-167.96875,-52.24609375
1770773151.5857592,,,-28.80859375,-57.6171875,-107.421875,-17.578125
1770773151.5906546,,,-20.99609375,-60.05859375,-363.28125,-20.5078125
1770773151.59555,,,-50.78125,-63.4765625,-286.1328125,-44.921875
1770773151.5992422,,,-52.734375,-62.98828125,-102.5390625,-38.57421875
1770773151.6029346,,,-27.34375,-65.91796875,-271.484375,-19.53125
1770773151.6066267,,,-9.765625,-64.453125,-451.66015625,-14.16015625
1770773151.6103191,,,-28.3203125,-62.01171875,-225.5859375,-37.109375
1770773151.6140113,,,-46.875,-69.3359375,-147.4609375,-55.6640625
1770773151.6177034,,,-33.69140625,-71.2890625,-535.15625,-16.11328125
1770773151.6213958,,,-19.53125,-69.3359375,-750.48828125,-7.8125
1770773151.625088,,,-30.2734375,-68.84765625,-327.1484375,-47.36328125
1770773151.6287804,,,-39.55078125,-65.4296875,-124.51171875,-47.8515625
1770773151.6324725,,,-23.4375,-61.03515625,-539.55078125,-6.34765625
1770773151.636165,,,-18.5546875,-60.546875,-837.890625,5.859375
1770773151.639857,,,-12.20703125,-59.5703125,-311.03515625,-21.97265625
1770773151.643738,,,-25.87890625,-60.546875,-90.8203125,-19.53125
1770773151.6476188,,,-44.43359375,-65.91796875,-524.4140625,-4.39453125
1770773151.6514997,,,-23.92578125,-64.453125,-576.171875,-3.41796875
1770773151.6553807,,,-17.578125,-61.03515625,-173.33984375,-11.71875
1770773151.6592617,,,-35.15625,-64.94140625,-175.29296875,-13.671875
1770773151.6631427,,,-45.41015625,-65.91796875,-518.5546875,-3.90625
1770773151.6670234,,,-39.0625,-62.5,-554.19921875,-11.23046875
1770773151.6709044,,,-15.625,-62.5,-213.37890625,-25.87890625
1770773151.6747854,,,-13.671875,-62.01171875,-243.65234375,-21.484375
1770773151.678666,,,-29.296875,-64.94140625,-695.3125,-16.11328125
1770773151.682547,,,-24.90234375,-72.75390625,-586.9140625,-24.4140625
1770773151.686428,,,-10.25390625,-72.265625,-131.8359375,-24.4140625
1770773151.6901984,,,-19.04296875,-72.265625,-252.44140625,-20.5078125
1770773151.6939688,,,-43.9453125,-76.171875,-551.7578125,-23.92578125
1770773151.6977391,,,-45.41015625,-74.21875,-431.15234375,-22.94921875
1770773151.7015095,,,-14.16015625,-66.89453125,-138.18359375,-23.92578125
1770773151.7052798,,,-9.765625,-68.359375,-419.43359375,-24.90234375
1770773151.70905,,,-42.96875,-72.265625,-901.85546875,-31.73828125
1770773151.7128203,,,-41.9921875,-67.87109375,-661.62109375,-40.0390625
1770773151.7165906,,,-24.90234375,-65.91796875,-223.6328125,-32.2265625
1770773151.720361,,,-17.578125,-63.4765625,-497.55859375,-11.71875
1770773151.7241313,,,-41.9921875,-62.98828125,-927.24609375,-26.85546875
1770773151.7279017,,,-57.12890625,-61.03515625,-630.859375,-57.12890625
1770773151.731672,,,-37.109375,-54.6875,-380.37109375,-38.0859375
1770773151.741406,,,-25.390625,-56.15234375,-447.75390625,-26.3671875
1770773151.7511396,,,-35.64453125,-58.59375,-432.12890625,-39.55078125
1770773151.7608736,,,-48.828125,-60.546875,-302.24609375,-46.38671875
1770773151.7706075,,,-31.73828125,-57.12890625,-324.70703125,-30.76171875
1770773151.7803411,,,-15.625,-53.7109375,-506.8359375,-24.90234375
1770773151.790075,,,-14.6484375,-48.828125,-628.90625,-27.83203125
1770773151.799809,,,-34.1796875,-43.45703125,-683.10546875,-31.25
1770773151.8095427,,,-35.64453125,-49.31640625,-680.6640625,-29.296875
1770773151.8192766,,,-15.625,-51.26953125,-863.28125,-2.9296875
1770773151.8290105,,,-14.16015625,-48.33984375,-866.2109375,-16.11328125
1770773151.8387442,,,-31.25,-47.36328125,-401.85546875,-62.01171875
1770773151.848478,,,-43.45703125,-56.640625,-438.96484375,-36.62109375
1770773151.8511238,,,-35.64453125,-59.5703125,-612.79296875,-13.671875
1770773151.8537695,,,-14.16015625,-50.78125,-416.9921875,-18.5546875
1770773151.8564153,,,-13.18359375,-41.015625,-340.8203125,-28.3203125
1770773151.859061,,,-38.0859375,-42.48046875,-549.31640625,-24.4140625
1770773151.8617067,,,-38.0859375,-53.7109375,-654.78515625,-12.20703125
1770773151.8643527,,,-14.16015625,-54.6875,-695.3125,-14.16015625
1770773151.8669984,,,-26.3671875,-49.31640625,-625.0,-34.66796875
1770773151.8696442,,,-51.7578125,-47.8515625,-659.1796875,-35.15625
1770773151.87229,,,-52.734375,-48.33984375,-868.1640625,-23.4375
1770773151.8749356,,,-38.0859375,-55.6640625,-598.6328125,-32.71484375
1770773151.8775814,,,-40.52734375,-64.453125,-334.47265625,-35.64453125
1770773151.880227,,,-69.82421875,-62.5,-655.2734375,-34.66796875
1770773151.882686,,,-76.66015625,-62.01171875,-780.2734375,-42.96875
1770773151.885145,,,-52.734375,-60.05859375,-432.12890625,-37.59765625
1770773151.8876038,,,-27.34375,-55.6640625,-437.5,-26.85546875
1770773151.8900628,,,-51.26953125,-47.36328125,-754.8828125,-37.59765625
1770773151.8925216,,,-67.3828125,-42.96875,-768.5546875,-39.55078125
1770773151.8949804,,,-42.96875,-42.96875,-681.640625,-29.78515625
1770773151.8974395,,,-31.73828125,-40.52734375,-784.1796875,-26.3671875
1770773151.8998983,,,-44.43359375,-40.52734375,-908.203125,-26.85546875
1770773151.9023573,,,-62.98828125,-41.50390625,-800.29296875,-44.43359375
1770773151.9048162,,,-42.96875,-48.33984375,-433.10546875,-48.828125
1770773151.9072752,,,-21.484375,-54.19921875,-503.41796875,-31.25
1770773151.909734,,,-34.66796875,-51.26953125,-748.53515625,-36.1328125
1770773151.9099936,,,-62.5,-48.828125,-778.80859375,-60.05859375
1770773151.9102535,,,-57.6171875,-47.36328125,-524.90234375,-47.8515625
1770773151.9105134,,,-19.53125,-48.33984375,-548.828125,-11.23046875
1770773151.910773,,,-20.01953125,-41.9921875,-890.13671875,-15.13671875
1770773151.9110327,,,-53.7109375,-37.109375,-730.46875,-41.015625
1770773151.9112926,,,-42.48046875,-40.0390625,-676.7578125,-20.01953125
1770773151.9115524,,,-27.83203125,-41.9921875,-868.65234375,0.0
1770773151.911812,,,-22.4609375,-44.43359375,-889.6484375,-13.671875
1770773151.9120717,,,-36.1328125,-42.48046875,-621.09375,-54.19921875
1770773151.9123316,,,-43.9453125,-43.45703125,-438.96484375,-46.38671875
1770773151.9125915,,,-35.64453125,-48.828125,-725.5859375,-0.48828125
1770773151.912851,,,-22.4609375,-45.8984375,-868.65234375,-7.8125
1770773151.9175787,,,-46.875,-46.38671875,-541.50390625,-47.8515625
1770773151.922306,,,-65.91796875,-44.921875,-465.8203125,-49.8046875
1770773151.9270334,,,-47.8515625,-44.921875,-765.625,-17.578125
1770773151.931761,,,-29.78515625,-48.33984375,-893.5546875,-20.01953125
1770773151.9364886,,,-24.4140625,-47.36328125,-723.14453125,-43.9453125
1770773151.941216,,,-31.25,-48.33984375,-796.875,-48.828125
1770773151.9459434,,,-31.25,-53.7109375,-937.5,-29.78515625
1770773151.950671,,,-14.6484375,-57.12890625,-935.546875,-22.94921875
1770773151.9553986,,,-12.6953125,-52.24609375,-518.06640625,-51.26953125
1770773151.960126,,,-37.59765625,-52.734375,-434.08203125,-48.33984375
1770773151.9648533,,,-41.50390625,-58.10546875,-627.9296875,-45.8984375
1770773151.969581,,,-20.99609375,-48.828125,-488.28125,-36.62109375
1770773151.9733407,,,-3.90625,-37.109375,-298.828125,-31.73828125
1770773151.9771004,,,-33.203125,-43.45703125,-504.8828125,-42.96875
1770773151.9808602,,,-45.8984375,-49.8046875,-717.28515625,-41.015625
1770773151.9846199,,,-24.90234375,-50.78125,-450.1953125,-39.55078125
1770773151.9883797,,,-4.8828125,-51.26953125,-320.80078125,-27.34375
1770773151.9921396,,,-15.625,-50.29296875,-686.5234375,-11.23046875
1770773151.9958992,,,-38.57421875,-47.8515625,-881.8359375,-23.92578125
1770773151.999659,,,-39.0625,-45.41015625,-683.10546875,-24.90234375
1770773152.0034187,,,-31.73828125,-42.48046875,-429.19921875,-15.13671875
1770773152.0071785,,,-30.2734375,-40.52734375,-583.49609375,-8.7890625
1770773152.0109382,,,-41.9921875,-40.0390625,-895.5078125,-17.08984375
1770773152.014698,,,-34.66796875,-39.0625,-529.296875,-38.0859375
1770773152.0185356,,,-11.71875,-44.43359375,-352.5390625,-20.5078125
1770773152.0223734,,,-7.32421875,-47.36328125,-528.3203125,-17.08984375
1770773152.026211,,,-26.85546875,-45.41015625,-573.2421875,-37.59765625
1770773152.0300486,,,-26.85546875,-40.52734375,-403.80859375,-23.92578125
1770773152.0338864,,,-13.18359375,-40.0390625,-439.453125,-0.48828125
1770773152.037724,,,-5.859375,-46.38671875,-790.52734375,-1.46484375
1770773152.0415616,,,-24.4140625,-50.29296875,-834.47265625,-33.203125
1770773152.0453994,,,-49.8046875,-45.41015625,-470.21484375,-39.55078125
1770773152.049237,,,-41.9921875,-42.96875,-358.88671875,-15.625
1770773152.0530746,,,-18.06640625,-48.33984375,-720.21484375,-18.06640625
1770773152.0569124,,,-17.08984375,-41.015625,-724.609375,-31.25
1770773152.06075,,,-29.296875,-35.64453125,-517.08984375,-34.66796875
1770773152.065755,,,-24.4140625,-38.57421875,-563.96484375,-12.6953125
1770773152.0707598,,,-11.71875,-39.55078125,-672.36328125,-1.953125
1770773152.0757644,,,-4.39453125,-41.50390625,-459.47265625,-20.5078125
1770773152.0807693,,,-22.4609375,-43.45703125,-288.57421875,-30.2734375
1770773152.0857742,,,-33.69140625,-48.828125,-493.1640625,-10.7421875
1770773152.0907788,,,-25.87890625,-54.6875,-756.34765625,-0.9765625
1770773152.0957837,,,-18.06640625,-55.6640625,-625.48828125,-17.08984375
1770773152.1007886,,,-20.99609375,-54.6875,-363.28125,-34.1796875
1770773152.1057935,,,-30.2734375,-55.6640625,-646.97265625,-17.08984375
1770773152.1107984,,,-26.3671875,-54.6875,-879.8828125,-4.39453125
1770773152.115803,,,-13.671875,-46.875,-421.875,-27.34375
1770773152.120808,,,-16.6015625,-46.875,-239.74609375,-34.66796875
1770773152.123401,,,-37.59765625,-50.29296875,-520.5078125,-35.64453125
1770773152.1259942,,,-39.55078125,-47.8515625,-511.23046875,-22.94921875
1770773152.1285872,,,-18.06640625,-43.45703125,-429.6875,-13.18359375
1770773152.1311803,,,-12.20703125,-46.875,-492.1875,-21.484375
1770773152.1337733,,,-28.80859375,-52.734375,-690.91796875,-30.76171875
1770773152.1363664,,,-31.73828125,-45.41015625,-860.3515625,-27.83203125
1770773152.1389596,,,-24.90234375,-41.50390625,-563.96484375,-25.390625
1770773152.1415527,,,-23.4375,-48.33984375,-397.94921875,-30.76171875
1770773152.1441457,,,-41.015625,-54.19921875,-612.79296875,-41.50390625
1770773152.146739,,,-47.36328125,-55.6640625,-547.8515625,-38.0859375
1770773152.149332,,,-33.203125,-57.6171875,-372.0703125,-31.73828125
1770773152.151925,,,-15.625,-57.12890625,-468.75,-24.90234375
1770773152.1569872,,,-20.99609375,-56.15234375,-833.0078125,-27.83203125
1770773152.1620493,,,-48.33984375,-56.640625,-705.078125,-54.19921875
1770773152.1671114,,,-28.3203125,-55.17578125,-247.55859375,-36.62109375
1770773152.1721735,,,-0.9765625,-53.7109375,-401.85546875,-12.6953125
1770773152.1772356,,,-24.4140625,-53.22265625,-545.41015625,-33.69140625
1770773152.1822977,,,-45.41015625,-51.26953125,-524.4140625,-39.0625
1770773152.1873596,,,-40.0390625,-49.31640625,-550.78125,-21.97265625
1770773152.1924217,,,-29.296875,-52.734375,-698.73046875,-1.953125
1770773152.1974838,,,-40.0390625,-54.19921875,-992.67578125,-8.30078125
1770773152.202546,,,-57.6171875,-47.8515625,-631.8359375,-52.24609375
1770773152.207608,,,-38.0859375,-48.33984375,-195.80078125,-44.921875
1770773152.21267,,,-25.87890625,-46.875,-385.7421875,-21.97265625
1770773152.21501,,,-20.99609375,-47.8515625,-419.921875,-37.59765625
1770773152.21735,,,-23.4375,-44.921875,-245.1171875,-51.26953125
1770773152.2196898,,,-38.0859375,-48.33984375,-233.88671875,-28.3203125
1770773152.2220297,,,-31.25,-53.7109375,-399.4140625,-20.99609375
1770773152.2243695,,,-9.27734375,-45.8984375,-394.53125,-20.99609375
1770773152.2267094,,,-20.5078125,-44.43359375,-462.890625,-27.83203125
1770773152.2290494,,,-39.55078125,-42.96875,-638.671875,-29.78515625
1770773152.2313893,,,-27.34375,-40.52734375,-651.85546875,-19.53125
1770773152.2337291,,,-18.5546875,-40.52734375,-447.265625,-14.16015625
1770773152.2360692,,,-27.83203125,-45.41015625,-376.953125,-18.5546875
1770773152.238409,,,-43.9453125,-50.29296875,-528.80859375,-30.76171875
1770773152.240749,,,-41.9921875,-44.43359375,-851.07421875,6.34765625
1770773152.2456176,,,-29.296875,-43.45703125,-791.015625,1.46484375
1770773152.2504866,,,-8.7890625,-43.9453125,-231.4453125,-43.9453125
1770773152.2553554,,,-23.4375,-44.43359375,-431.640625,-29.296875
1770773152.2602243,,,-33.69140625,-49.8046875,-575.68359375,-14.6484375
1770773152.265093,,,-12.20703125,-47.36328125,-308.59375,-21.484375
1770773152.269962,,,-7.32421875,-46.875,-436.5234375,-20.01953125
1770773152.2748308,,,-23.4375,-48.828125,-785.15625,-12.6953125
1770773152.2796996,,,-31.25,-44.921875,-881.34765625,-18.5546875
1770773152.2845685,,,-35.15625,-42.48046875,-429.6875,-29.78515625
1770773152.2894373,,,-23.4375,-44.921875,-156.73828125,-16.11328125
1770773152.2943063,,,-36.62109375,-48.33984375,-459.9609375,-23.4375
1770773152.299175,,,-63.96484375,-51.7578125,-571.2890625,-35.64453125
1770773152.302974,,,-55.6640625,-52.734375,-369.62890625,-35.15625
1770773152.306773,,,-29.296875,-58.10546875,-485.3515625,-23.4375
1770773152.310572,,,-27.83203125,-55.6640625,-826.171875,-20.99609375
1770773152.3143706,,,-45.8984375,-48.828125,-729.4921875,-46.875
1770773152.3181696,,,-50.78125,-51.7578125,-368.65234375,-43.45703125
1770773152.3219686,,,-30.76171875,-53.22265625,-565.91796875,-19.04296875
1770773152.3257675,,,-25.87890625,-51.7578125,-931.640625,-10.25390625
1770773152.3295665,,,-48.33984375,-45.41015625,-820.80078125,-44.43359375
1770773152.3333654,,,-39.0625,-33.69140625,-407.71484375,-56.15234375
1770773152.3371642,,,-19.04296875,-31.25,-423.828125,-23.92578125
1770773152.3409631,,,-5.859375,-31.25,-681.640625,-19.53125
1770773152.344762,,,-15.13671875,-31.73828125,-601.5625,-40.0390625
1770773152.3497648,,,-41.9921875,-34.66796875,-386.71875,-46.38671875
1770773152.3547678,,,-27.83203125,-39.55078125,-500.48828125,-20.01953125
1770773152.3597705,,,-16.6015625,-42.48046875,-637.20703125,-15.13671875
1770773152.3647733,,,-39.0625,-37.59765625,-482.421875,-41.50390625
1770773152.3697762,,,-48.828125,-34.66796875,-552.734375,-36.62109375
1770773152.374779,,,-35.64453125,-40.0390625,-814.453125,-9.27734375
1770773152.3797817,,,-23.92578125,-43.9453125,-989.2578125,-1.953125
1770773152.3847847,,,-36.62109375,-42.96875,-767.08984375,-37.59765625
1770773152.3897874,,,-58.59375,-39.55078125,-418.45703125,-53.7109375
1770773152.3947902,,,-54.6875,-39.0625,-684.08203125,-15.13671875
1770773152.3997931,,,-38.57421875,-41.015625,-872.55859375,-7.8125
1770773152.404796,,,-22.94921875,-41.015625,-502.44140625,-28.80859375
1770773152.4073744,,,-41.015625,-41.9921875,-457.51953125,-26.85546875
1770773152.4099529,,,-60.05859375,-43.9453125,-688.4765625,-24.90234375
1770773152.4125314,,,-33.203125,-44.921875,-656.73828125,-14.6484375
1770773152.4151099,,,-25.87890625,-41.9921875,-446.77734375,-18.5546875
1770773152.4176884,,,-35.15625,-45.41015625,-535.15625,-33.69140625
1770773152.420267,,,-44.43359375,-53.22265625,-891.6015625,-25.390625
1770773152.4228456,,,-52.734375,-53.7109375,-898.92578125,-17.08984375
1770773152.425424,,,-24.4140625,-48.33984375,-540.0390625,-12.6953125
1770773152.4280026,,,-16.11328125,-42.96875,-644.04296875,-22.4609375
1770773152.430581,,,-29.78515625,-46.38671875,-944.82421875,-28.80859375
1770773152.4331596,,,-25.390625,-45.8984375,-767.578125,-34.1796875
1770773152.435738,,,2.9296875,-45.41015625,-440.91796875,-29.296875
1770773152.4406395,,,3.41796875,-46.875,-526.85546875,-11.71875
1770773152.445541,,,-32.71484375,-46.875,-940.91796875,-13.18359375
1770773152.4504423,,,-42.48046875,-47.8515625,-795.41015625,-32.2265625
1770773152.4553437,,,-20.99609375,-51.7578125,-323.2421875,-23.4375
1770773152.4602451,,,2.44140625,-57.6171875,-452.63671875,-13.18359375
1770773152.4651465,,,-23.92578125,-58.10546875,-839.84375,-24.90234375
1770773152.470048,,,-61.03515625,-59.5703125,-708.984375,-24.4140625
1770773152.4749494,,,-62.01171875,-65.4296875,-307.12890625,-10.7421875
1770773152.4798508,,,-29.296875,-66.89453125,-558.59375,15.13671875
1770773152.4847522,,,-44.43359375,-56.640625,-900.390625,0.0
1770773152.4896536,,,-49.8046875,-53.22265625,-500.0,-29.78515625
1770773152.494555,,,-37.59765625,-62.98828125,-334.47265625,-11.23046875
1770773152.497169,,,-31.73828125,-65.4296875,-762.6953125,0.48828125
1770773152.499783,,,-35.15625,-66.40625,-804.19921875,-39.55078125
1770773152.502397,,,-63.4765625,-72.75390625,-418.9453125,-59.08203125
1770773152.505011,,,-60.546875,-76.171875,-405.2734375,-29.78515625
1770773152.507625,,,-56.640625,-78.61328125,-570.3125,-20.5078125
1770773152.510239,,,-62.98828125,-80.56640625,-716.796875,-34.1796875
1770773152.512853,,,-71.77734375,-82.03125,-715.8203125,-50.29296875
1770773152.515467,,,-80.078125,-83.0078125,-488.28125,-31.73828125
1770773152.518081,,,-54.6875,-83.984375,-724.609375,-5.37109375
1770773152.520695,,,-43.9453125,-76.171875,-777.34375,-21.97265625
1770773152.523309,,,-67.3828125,-67.87109375,-334.9609375,-43.9453125
1770773152.525923,,,-85.44921875,-62.5,-428.22265625,-23.4375
1770773152.5297215,,,-78.61328125,-62.98828125,-651.85546875,-5.37109375
1770773152.5335197,,,-69.82421875,-75.1953125,-456.54296875,-20.01953125
1770773152.5373182,,,-83.0078125,-73.73046875,-301.26953125,-29.78515625
1770773152.5411167,,,-100.09765625,-66.89453125,-573.2421875,-28.3203125
1770773152.5449152,,,-93.26171875,-62.5,-770.5078125,-16.6015625
1770773152.5487137,,,-78.61328125,-56.15234375,-690.91796875,-12.20703125
1770773152.552512,,,-75.68359375,-58.10546875,-514.6484375,-35.64453125
1770773152.5563104,,,-89.84375,-53.22265625,-591.796875,-35.64453125
1770773152.560109,,,-109.375,-52.734375,-963.37890625,-24.90234375
1770773152.5639071,,,-92.28515625,-55.6640625,-511.23046875,-43.9453125
1770773152.5677056,,,-61.03515625,-50.29296875,-339.84375,-31.73828125
1770773152.571504,,,-77.1484375,-50.29296875,-710.44921875,-46.875
1770773152.5751975,,,-94.7265625,-48.828125,-529.78515625,-47.36328125
1770773152.5788908,,,-65.4296875,-45.41015625,-219.23828125,-18.06640625
1770773152.5825841,,,-41.015625,-49.8046875,-190.4296875,-18.06640625
1770773152.5862775,,,-74.70703125,-49.8046875,-402.34375,-43.9453125
1770773152.5899708,,,-88.37890625,-49.8046875,-456.0546875,-44.43359375
1770773152.593664,,,-51.7578125,-57.6171875,-523.4375,-21.484375
1770773152.5973573,,,-33.203125,-58.10546875,-620.1171875,-27.83203125
1770773152.6010506,,,-51.7578125,-59.08203125,-819.82421875,-20.99609375
1770773152.604744,,,-69.82421875,-62.5,-872.55859375,-30.76171875
1770773152.6084373,,,-53.22265625,-58.59375,-322.265625,-61.03515625
1770773152.6121306,,,-35.15625,-59.08203125,-242.1875,-41.50390625
1770773152.615824,,,-53.22265625,-65.4296875,-471.19140625,-31.73828125
1770773152.623246,,,-69.82421875,-66.89453125,-359.375,-37.109375
1770773152.6306677,,,-48.33984375,-60.05859375,-192.3828125,-27.34375
1770773152.6380897,,,-23.4375,-58.10546875,-346.6796875,-13.18359375
1770773152.6455116,,,-25.390625,-59.08203125,-486.328125,-19.53125
1770773152.6529336,,,-32.71484375,-50.78125,-373.046875,-47.8515625
1770773152.6603556,,,-49.31640625,-50.29296875,-467.7734375,-50.29296875
1770773152.6677773,,,-53.22265625,-53.7109375,-699.21875,-19.53125
1770773152.6751993,,,-45.41015625,-52.734375,-852.05078125,-16.6015625
1770773152.6826212,,,-72.75390625,-51.26953125,-486.81640625,-58.59375
1770773152.690043,,,-81.0546875,-49.8046875,-189.94140625,-47.36328125
1770773152.697465,,,-67.87109375,-56.640625,-484.375,-20.99609375
1770773152.704887,,,-52.24609375,-52.24609375,-529.296875,-29.296875
1770773152.7073283,,,-46.875,-48.828125,-190.4296875,-41.015625
1770773152.70977,,,-63.4765625,-54.19921875,-162.109375,-33.69140625
1770773152.7122114,,,-70.3125,-59.08203125,-599.12109375,-6.8359375
1770773152.714653,,,-48.828125,-61.5234375,-675.29296875,-13.671875
1770773152.7170944,,,-22.4609375,-55.6640625,-281.25,-27.83203125
1770773152.7195358,,,-19.04296875,-50.78125,-528.80859375,-29.78515625
1770773152.7219775,,,-25.390625,-49.8046875,-771.97265625,-37.109375
1770773152.7244189,,,-25.87890625,-53.7109375,-539.55078125,-33.69140625
1770773152.7268605,,,-15.13671875,-63.96484375,-268.5546875,-31.25
1770773152.729302,,,-33.69140625,-71.2890625,-383.7890625,-24.4140625
1770773152.7317436,,,-46.38671875,-70.80078125,-649.4140625,-24.4140625
1770773152.734185,,,-48.33984375,-68.84765625,-485.83984375,-23.92578125
1770773152.7379804,,,-46.875,-68.359375,-273.92578125,-27.83203125
1770773152.7417755,,,-41.015625,-66.40625,-507.32421875,-25.390625
1770773152.745571,,,-38.57421875,-60.546875,-864.74609375,-21.97265625
1770773152.7493663,,,-26.85546875,-53.22265625,-599.12109375,-38.0859375
1770773152.7531617,,,-12.6953125,-54.6875,-336.9140625,-30.2734375
1770773152.756957,,,-21.97265625,-63.4765625,-676.7578125,-31.73828125
1770773152.7607522,,,-46.38671875,-64.94140625,-1000.0,-22.94921875
1770773152.7645476,,,-47.8515625,-52.24609375,-862.3046875,-39.0625
1770773152.768343,,,-2.9296875,-40.52734375,-338.8671875,-48.828125
1770773152.772138,,,-0.9765625,-48.828125,-567.87109375,-14.16015625
1770773152.7759335,,,-37.109375,-56.640625,-835.44921875,-24.90234375
1770773152.779729,,,-24.90234375,-54.19921875,-438.4765625,-41.50390625
1770773152.7823398,,,3.41796875,-50.29296875,-301.7578125,-33.203125
1770773152.7849507,,,6.34765625,-48.828125,-587.40234375,-20.5078125
1770773152.7875617,,,-22.4609375,-52.24609375,-648.92578125,-32.2265625
1770773152.7901726,,,-39.55078125,-58.10546875,-353.515625,-38.57421875
1770773152.7927835,,,-16.6015625,-57.12890625,-458.984375,-19.53125
1770773152.7953944,,,-5.859375,-56.15234375,-833.984375,-14.16015625
1770773152.7980053,,,-28.3203125,-58.10546875,-931.640625,-36.1328125
1770773152.8006163,,,-30.2734375,-45.41015625,-663.0859375,-43.45703125
1770773152.8032272,,,-6.34765625,-41.50390625,-417.96875,-36.1328125
1770773152.805838,,,-3.41796875,-54.19921875,-751.953125,-26.3671875
1770773152.808449,,,-17.578125,-54.6875,-771.484375,-44.921875
1770773152.81106,,,-16.11328125,-43.45703125,-376.46484375,-53.7109375
1770773152.814786,,,-5.859375,-39.0625,-405.2734375,-23.92578125
1770773152.8185117,,,-16.6015625,-44.921875,-742.67578125,-5.859375
1770773152.8222377,,,-32.71484375,-43.45703125,-632.32421875,-36.1328125
1770773152.8259637,,,-34.66796875,-41.9921875,-394.04296875,-57.12890625
1770773152.8296895,,,-35.64453125,-43.45703125,-568.359375,-25.390625
1770773152.8334155,,,-10.7421875,-41.9921875,-840.8203125,6.8359375
1770773152.8371415,,,13.671875,-34.66796875,-750.0,-11.23046875
1770773152.8408673,,,-7.32421875,-40.0390625,-445.80078125,-39.55078125
1770773152.8445933,,,-23.4375,-50.29296875,-641.6015625,-6.8359375
1770773152.8483193,,,-9.27734375,-48.828125,-993.1640625,4.39453125
1770773152.852045,,,8.7890625,-39.55078125,-655.2734375,-31.25
1770773152.855771,,,11.71875,-35.64453125,-342.28515625,-14.6484375
1770773152.8595269,,,-0.9765625,-40.52734375,-716.796875,4.8828125
1770773152.8632827,,,-4.8828125,-43.45703125,-784.1796875,-6.34765625
1770773152.8670385,,,4.8828125,-45.8984375,-389.6484375,-3.90625
1770773152.8707943,,,-0.48828125,-47.36328125,-338.37890625,-4.39453125
1770773152.87455,,,-34.1796875,-50.29296875,-670.41015625,-24.90234375
1770773152.8783062,,,-35.15625,-49.8046875,-885.7421875,-19.04296875
1770773152.882062,,,-5.37109375,-47.8515625,-729.00390625,-21.97265625
1770773152.8858178,,,0.9765625,-49.8046875,-555.6640625,-30.76171875
1770773152.8895736,,,-27.83203125,-52.24609375,-811.03515625,-17.578125
1770773152.8933294,,,-40.52734375,-51.7578125,-831.54296875,-25.390625
1770773152.8970852,,,-10.25390625,-46.38671875,-376.953125,-23.92578125
1770773152.900841,,,11.71875,-47.8515625,-418.45703125,-38.0859375
1770773152.90469,,,-3.90625,-49.31640625,-731.4453125,-38.57421875
1770773152.908539,,,-19.53125,-44.43359375,-740.72265625,-29.78515625
1770773152.912388,,,-16.6015625,-41.015625,-463.8671875,-18.5546875
1770773152.916237,,,5.37109375,-35.15625,-541.9921875,0.9765625
1770773152.9200861,,,-1.46484375,-34.1796875,-844.7265625,-23.4375
1770773152.923935,,,-12.6953125,-39.55078125,-853.515625,-35.15625
1770773152.927784,,,11.71875,-45.41015625,-761.71875,-21.97265625
1770773152.931633,,,18.5546875,-48.33984375,-806.15234375,-8.7890625
1770773152.935482,,,-16.6015625,-44.43359375,-896.97265625,-19.04296875
1770773152.939331,,,-31.25,-44.921875,-558.59375,-50.29296875
1770773152.94318,,,-13.18359375,-45.8984375,-331.0546875,-43.9453125
1770773152.947029,,,-3.90625,-44.921875,-502.44140625,-29.78515625
1770773152.9506748,,,3.41796875,-51.7578125,-544.921875,-25.87890625
1770773152.9543204,,,8.30078125,-49.31640625,-446.77734375,-37.59765625
1770773152.957966,,,3.90625,-43.9453125,-509.27734375,-33.69140625
1770773152.9616117,,,0.48828125,-45.41015625,-687.01171875,-18.06640625
1770773152.9652574,,,22.4609375,-44.43359375,-741.2109375,-20.01953125
1770773152.968903,,,7.32421875,-46.875,-791.50390625,-34.1796875
1770773152.9725487,,,-29.78515625,-52.24609375,-812.01171875,-50.78125
1770773152.9761944,,,-27.83203125,-52.24609375,-889.16015625,-23.4375
1770773152.97984,,,-33.69140625,-51.7578125,-898.4375,-22.4609375
1770773152.9834857,,,-40.52734375,-57.6171875,-475.09765625,-47.8515625
1770773152.9871314,,,-49.8046875,-65.91796875,-520.99609375,-43.45703125
1770773152.990777,,,-40.52734375,-62.98828125,-680.6640625,-42.48046875
1770773152.9945276,,,-15.13671875,-61.5234375,-418.9453125,-35.15625
1770773152.9982781,,,-18.5546875,-60.05859375,-302.734375,-27.34375
1770773153.0020285,,,-33.203125,-57.12890625,-520.5078125,-25.390625
1770773153.005779,,,-42.48046875,-57.12890625,-633.7890625,-39.0625
1770773153.0095296,,,-35.15625,-61.03515625,-433.59375,-34.1796875
1770773153.01328,,,-20.01953125,-65.91796875,-574.70703125,-29.296875
1770773153.0170305,,,-38.57421875,-68.359375,-863.28125,-44.43359375
1770773153.020781,,,-58.10546875,-68.84765625,-897.4609375,-45.8984375
1770773153.0245316,,,-41.50390625,-60.546875,-677.734375,-42.96875
1770773153.0282822,,,-14.6484375,-52.24609375,-354.98046875,-33.203125
1770773153.0320325,,,-11.71875,-49.31640625,-596.19140625,-34.66796875
1770773153.035783,,,-26.85546875,-57.12890625,-801.7578125,-45.8984375
1770773153.0406778,,,-27.83203125,-57.12890625,-374.51171875,-41.015625
1770773153.0455728,,,-17.08984375,-52.24609375,-295.41015625,-21.97265625
1770773153.0504675,,,-23.92578125,-58.59375,-546.38671875,-31.25
1770773153.0553625,,,-43.9453125,-61.5234375,-515.13671875,-47.36328125
1770773153.0602572,,,-37.109375,-59.08203125,-361.328125,-31.73828125
1770773153.0651522,,,-18.5546875,-58.10546875,-563.4765625,-18.06640625
1770773153.070047,,,-9.765625,-57.12890625,-859.375,-14.16015625
1770773153.0749416,,,-29.78515625,-49.8046875,-773.4375,-42.48046875
1770773153.0798366,,,-34.66796875,-45.41015625,-279.78515625,-60.05859375
1770773153.0847313,,,-12.6953125,-47.8515625,-299.31640625,-26.3671875
1770773153.0896263,,,-1.46484375,-46.38671875,-478.02734375,-19.04296875
1770773153.094521,,,-11.23046875,-47.8515625,-556.640625,-34.66796875
1770773153.0982757,,,-14.6484375,-48.33984375,-531.25,-46.875
1770773153.10203,,,10.25390625,-47.8515625,-431.640625,-36.1328125
1770773153.1057844,,,24.90234375,-45.41015625,-627.9296875,-23.4375
1770773153.109539,,,6.34765625,-45.41015625,-402.34375,-48.33984375
1770773153.1132936,,,-9.765625,-47.8515625,-151.85546875,-48.828125
1770773153.117048,,,-1.46484375,-52.734375,-507.8125,-20.99609375
1770773153.1208024,,,3.41796875,-53.7109375,-789.55078125,-15.625
1770773153.124557,,,4.39453125,-49.8046875,-303.22265625,-40.52734375
1770773153.1283116,,,2.9296875,-50.29296875,-25.390625,-52.24609375
1770773153.132066,,,0.48828125,-50.78125,-352.5390625,-36.62109375
1770773153.1358204,,,21.484375,-45.8984375,-382.32421875,-28.80859375
1770773153.139575,,,30.2734375,-43.45703125,-105.46875,-45.8984375
1770773153.144735,,,0.48828125,-45.41015625,-169.921875,-57.12890625
1770773153.1498954,,,-13.18359375,-42.96875,-423.828125,-41.50390625
1770773153.1550555,,,-3.90625,-40.52734375,-473.14453125,-27.83203125
1770773153.1602156,,,-8.30078125,-44.921875,-520.01953125,-26.3671875
1770773153.165376,,,-27.34375,-47.8515625,-586.42578125,-43.9453125
1770773153.170536,,,-33.69140625,-47.8515625,-826.171875,-20.99609375
1770773153.1756961,,,-30.2734375,-49.8046875,-919.921875,-8.30078125
1770773153.1808565,,,-12.6953125,-48.828125,-531.73828125,-31.25
1770773153.1860166,,,-20.99609375,-50.29296875,-460.9375,-25.390625
1770773153.1911767,,,-65.91796875,-56.15234375,-802.734375,-25.87890625
1770773153.196337,,,-81.54296875,-56.15234375,-684.08203125,-37.59765625
1770773153.201497,,,-54.19921875,-50.78125,-301.7578125,-26.85546875
1770773153.2039413,,,-52.24609375,-47.8515625,-509.765625,-9.765625
1770773153.2063854,,,-80.078125,-51.26953125,-718.75,-28.80859375
1770773153.2088296,,,-90.33203125,-55.6640625,-485.83984375,-41.9921875
1770773153.2112737,,,-73.2421875,-52.24609375,-308.10546875,-33.203125
1770773153.213718,,,-59.5703125,-47.36328125,-512.6953125,-24.4140625
1770773153.2161622,,,-83.49609375,-42.48046875,-834.47265625,-26.85546875
1770773153.2186062,,,-100.09765625,-44.43359375,-755.37109375,-35.64453125
1770773153.2210505,,,-83.984375,-49.8046875,-425.29296875,-27.83203125
1770773153.2234945,,,-60.05859375,-48.828125,-549.31640625,-6.8359375
1770773153.2259388,,,-69.3359375,-50.29296875,-708.49609375,-22.4609375
1770773153.2283828,,,-89.84375,-51.26953125,-354.4921875,-41.015625
1770773153.230827,,,-84.9609375,-51.26953125,-265.625,-30.76171875
1770773153.2357304,,,-64.453125,-52.24609375,-640.13671875,-6.34765625
1770773153.240634,,,-70.80078125,-48.828125,-991.69921875,-19.04296875
1770773153.2455373,,,-88.37890625,-41.015625,-623.53515625,-56.15234375
1770773153.2504408,,,-69.3359375,-41.9921875,-345.21484375,-19.04296875
1770773153.2553442,,,-48.828125,-41.9921875,-487.3046875,-6.34765625
1770773153.2602477,,,-40.52734375,-41.015625,-670.8984375,-25.390625
1770773153.265151,,,-49.8046875,-46.875,-643.06640625,-41.50390625
1770773153.2700543,,,-55.6640625,-53.7109375,-403.80859375,-40.52734375
1770773153.274958,,,-40.52734375,-51.7578125,-731.93359375,-2.44140625
1770773153.2798612,,,-36.1328125,-46.38671875,-787.109375,-15.13671875
1770773153.2847648,,,-42.96875,-42.96875,-527.83203125,-47.36328125
1770773153.289668,,,-50.78125,-47.8515625,-641.6015625,-42.48046875
1770773153.2922568,,,-41.9921875,-48.828125,-722.65625,-31.73828125
1770773153.2948453,,,-11.71875,-41.015625,-571.77734375,-26.3671875
1770773153.297434,,,-16.11328125,-43.9453125,-390.13671875,-45.41015625
1770773153.3000228,,,-43.9453125,-51.7578125,-659.66796875,-44.921875
1770773153.3026114,,,-41.9921875,-51.26953125,-793.9453125,-20.5078125
1770773153.3052,,,-32.71484375,-51.26953125,-815.91796875,-16.6015625
1770773153.3077888,,,-39.55078125,-51.26953125,-802.24609375,-26.85546875
1770773153.3103774,,,-57.12890625,-49.31640625,-801.26953125,-29.296875
1770773153.312966,,,-67.87109375,-50.78125,-889.6484375,-24.4140625
1770773153.3155549,,,-54.6875,-54.19921875,-605.46875,-37.59765625
1770773153.3181434,,,-39.55078125,-53.7109375,-493.1640625,-47.36328125
1770773153.320732,,,-59.5703125,-61.03515625,-805.6640625,-37.59765625
1770773153.325646,,,-74.70703125,-68.359375,-908.203125,-37.59765625
1770773153.3305597,,,-50.78125,-61.03515625,-670.41015625,-46.875
1770773153.3354735,,,-30.76171875,-53.7109375,-800.78125,-35.64453125
1770773153.3403873,,,-46.875,-53.7109375,-968.26171875,-43.9453125
1770773153.3453012,,,-62.98828125,-53.22265625,-853.02734375,-52.24609375
1770773153.350215,,,-48.828125,-51.7578125,-804.6875,-41.50390625
1770773153.355129,,,-34.1796875,-53.22265625,-859.375,-29.78515625
1770773153.3600428,,,-49.8046875,-59.5703125,-932.6171875,-36.1328125
1770773153.3649566,,,-70.3125,-66.89453125,-893.06640625,-53.7109375
1770773153.3698704,,,-56.640625,-69.82421875,-596.19140625,-46.875
1770773153.3747842,,,-34.1796875,-70.3125,-600.09765625,-28.80859375
1770773153.379698,,,-33.69140625,-64.94140625,-816.40625,-42.48046875
1770773153.3822854,,,-52.24609375,-64.453125,-740.234375,-77.63671875
1770773153.3848727,,,-47.36328125,-70.3125,-629.39453125,-74.21875
1770773153.38746,,,-28.3203125,-69.82421875,-788.0859375,-44.43359375
1770773153.3900473,,,-21.97265625,-69.82421875,-870.1171875,-45.41015625
1770773153.3926346,,,-28.80859375,-69.82421875,-789.0625,-62.01171875
1770773153.3952222,,,-31.73828125,-70.3125,-945.3125,-62.5
1770773153.3978095,,,-26.85546875,-66.89453125,-1000.0,-49.31640625
1770773153.4003968,,,-34.1796875,-58.59375,-955.078125,-47.8515625
1770773153.4029841,,,-36.62109375,-53.7109375,-780.76171875,-79.58984375
1770773153.4055715,,,-26.85546875,-52.734375,-622.0703125,-81.0546875
1770773153.4081588,,,-11.23046875,-56.640625,-815.4296875,-44.921875
1770773153.410746,,,5.37109375,-59.08203125,-910.64453125,-40.0390625
1770773153.4167752,,,0.48828125,-50.78125,-617.67578125,-67.87109375
1770773153.4228044,,,-14.6484375,-47.36328125,-529.296875,-60.546875
1770773153.4288332,,,-19.53125,-58.59375,-727.05078125,-52.734375
1770773153.4348624,,,-3.90625,-63.4765625,-696.77734375,-53.7109375
1770773153.4408915,,,-7.32421875,-59.5703125,-503.41796875,-64.94140625
1770773153.4469204,,,-26.85546875,-60.05859375,-756.8359375,-79.1015625
1770773153.4529495,,,-40.52734375,-60.546875,-1000.0,-64.453125
1770773153.4589787,,,-39.0625,-60.05859375,-843.75,-70.80078125
1770773153.4650078,,,-20.99609375,-51.7578125,-553.22265625,-72.265625
1770773153.471037,,,-43.9453125,-52.734375,-741.2109375,-64.94140625
1770773153.4770658,,,-59.08203125,-58.10546875,-918.45703125,-66.89453125
1770773153.483095,,,-36.1328125,-57.12890625,-645.5078125,-51.26953125
1770773153.4857187,,,-25.87890625,-60.546875,-436.5234375,-41.9921875
1770773153.4883428,,,-36.62109375,-62.5,-651.85546875,-50.78125
1770773153.4909668,,,-41.9921875,-62.01171875,-868.65234375,-64.453125
1770773153.4935906,,,-36.1328125,-64.453125,-675.78125,-60.546875
1770773153.4962144,,,-17.578125,-66.89453125,-595.21484375,-51.26953125
1770773153.4988384,,,-19.04296875,-69.3359375,-875.48828125,-42.48046875
1770773153.5014625,,,-61.5234375,-64.453125,-971.6796875,-43.9453125
1770773153.5040863,,,-77.63671875,-66.40625,-735.3515625,-63.4765625
1770773153.50671,,,-48.828125,-77.63671875,-604.98046875,-50.29296875
1770773153.509334,,,-37.109375,-81.54296875,-813.96484375,-26.3671875
1770773153.5119581,,,-53.22265625,-76.171875,-911.1328125,-34.1796875
1770773153.514582,,,-46.38671875,-75.1953125,-696.2890625,-27.83203125
1770773153.518356,,,-24.4140625,-85.44921875,-806.640625,-8.7890625
1770773153.52213,,,-13.671875,-85.44921875,-1000.0,-4.39453125
1770773153.5259042,,,-29.78515625,-75.68359375,-852.5390625,-28.3203125
1770773153.5296783,,,-35.64453125,-63.4765625,-625.48828125,-29.78515625
1770773153.5334523,,,-26.85546875,-62.98828125,-642.08984375,-0.9765625
1770773153.5372264,,,-16.6015625,-74.21875,-907.2265625,28.3203125
1770773153.5410006,,,-24.90234375,-72.265625,-1000.0,0.9765625
1770773153.5447745,,,-32.71484375,-60.546875,-790.52734375,-34.1796875
1770773153.5485487,,,-23.4375,-59.08203125,-667.96875,-10.7421875
1770773153.5523229,,,-13.671875,-66.40625,-868.1640625,11.23046875
1770773153.5560968,,,-13.18359375,-68.359375,-794.43359375,-0.48828125
1770773153.559871,,,-31.73828125,-71.77734375,-535.15625,-17.08984375
1770773153.56377,,,-41.9921875,-73.2421875,-593.75,5.859375
1770773153.5676692,,,-22.94921875,-71.2890625,-697.75390625,19.04296875
1770773153.5715683,,,-11.23046875,-67.87109375,-498.53515625,12.6953125
1770773153.5754673,,,-29.296875,-65.91796875,-470.703125,-2.44140625
1770773153.5793664,,,-46.875,-75.1953125,-780.76171875,6.8359375
1770773153.5832653,,,-51.26953125,-74.21875,-1000.0,22.94921875
1770773153.5871644,,,-41.50390625,-62.98828125,-807.6171875,8.30078125
1770773153.5910635,,,-47.8515625,-63.96484375,-493.65234375,0.9765625
1770773153.5949626,,,-66.89453125,-62.98828125,-713.37890625,19.04296875
1770773153.5988617,,,-70.80078125,-61.5234375,-905.76171875,25.87890625
1770773153.6027608,,,-53.7109375,-64.453125,-526.3671875,10.25390625
1770773153.60666,,,-58.59375,-68.359375,-366.69921875,2.44140625
1770773153.610338,,,-87.890625,-67.87109375,-641.11328125,-8.7890625
1770773153.6140158,,,-85.44921875,-57.6171875,-655.2734375,1.953125
1770773153.617694,,,-70.3125,-54.19921875,-408.69140625,10.7421875
1770773153.621372,,,-74.21875,-57.12890625,-402.34375,-3.41796875
1770773153.6250498,,,-104.00390625,-58.59375,-661.62109375,-10.7421875
1770773153.628728,,,-116.2109375,-60.546875,-892.578125,-7.32421875
1770773153.632406,,,-95.21484375,-57.12890625,-685.546875,-4.39453125
1770773153.6360838,,,-75.1953125,-53.7109375,-476.07421875,-16.6015625
1770773153.639762,,,-85.9375,-57.12890625,-827.1484375,5.859375
1770773153.64344,,,-98.14453125,-50.29296875,-892.578125,21.97265625
1770773153.6471179,,,-82.51953125,-43.9453125,-326.171875,2.44140625
1770773153.650796,,,-57.12890625,-45.8984375,-276.85546875,24.90234375
1770773153.6555684,,,-66.40625,-41.50390625,-496.58203125,26.85546875
1770773153.6603405,,,-87.890625,-46.875,-347.65625,10.25390625
1770773153.665113,,,-85.44921875,-54.6875,-216.30859375,9.765625
1770773153.6698854,,,-68.84765625,-54.6875,-355.95703125,11.71875
1770773153.6746576,,,-81.54296875,-63.96484375,-516.11328125,-12.6953125
1770773153.67943,,,-105.95703125,-66.40625,-551.26953125,-17.578125
1770773153.6842024,,,-101.07421875,-62.5,-579.58984375,-4.39453125
1770773153.6889746,,,-80.078125,-62.01171875,-707.03125,12.6953125
1770773153.693747,,,-89.35546875,-62.01171875,-859.86328125,9.27734375
1770773153.6985195,,,-106.93359375,-61.03515625,-471.19140625,-22.4609375
1770773153.7032917,,,-95.21484375,-55.17578125,-210.44921875,-7.8125
1770773153.708064,,,-102.5390625,-51.7578125,-503.90625,1.953125
1770773153.7108443,,,-110.83984375,-48.33984375,-555.6640625,-23.92578125
1770773153.7136245,,,-114.2578125,-48.828125,-308.59375,-46.875
1770773153.7164047,,,-118.1640625,-51.7578125,-312.5,-31.73828125
1770773153.7191846,,,-110.83984375,-48.828125,-595.21484375,-20.5078125
1770773153.7219648,,,-99.12109375,-50.78125,-600.5859375,-25.87890625
1770773153.724745,,,-110.3515625,-50.78125,-589.35546875,-52.734375
1770773153.7275252,,,-126.953125,-50.78125,-789.0625,-73.73046875
1770773153.7303054,,,-124.0234375,-49.31640625,-894.04296875,-40.0390625
1770773153.7330856,,,-126.46484375,-42.48046875,-783.203125,-32.71484375
1770773153.7358656,,,-128.90625,-41.9921875,-412.109375,-62.98828125
1770773153.7386458,,,-134.765625,-42.48046875,-476.07421875,-65.91796875
1770773153.741426,,,-141.6015625,-42.48046875,-687.5,-46.38671875
1770773153.7451305,,,-136.71875,-42.48046875,-525.390625,-42.96875
1770773153.748835,,,-127.44140625,-39.0625,-342.7734375,-48.828125
1770773153.7525396,,,-130.37109375,-31.25,-570.3125,-42.96875
1770773153.756244,,,-133.30078125,-30.2734375,-817.3828125,-45.41015625
1770773153.7599485,,,-110.83984375,-34.1796875,-607.91015625,-39.0625
1770773153.763653,,,-89.84375,-40.52734375,-668.9453125,-28.3203125
1770773153.7673576,,,-104.00390625,-39.55078125,-881.8359375,-40.0390625
1770773153.7710621,,,-119.62890625,-38.57421875,-971.6796875,-43.9453125
1770773153.7747667,,,-114.74609375,-39.0625,-649.4140625,-51.26953125
1770773153.778471,,,-86.42578125,-31.73828125,-280.76171875,-30.76171875
1770773153.7821755,,,-91.30859375,-34.66796875,-507.8125,-18.06640625
1770773153.78588,,,-115.234375,-43.45703125,-581.54296875,-33.203125
1770773153.7896676,,,-114.2578125,-44.921875,-367.1875,-30.76171875
1770773153.7934551,,,-88.8671875,-41.015625,-380.859375,-15.625
1770773153.7972426,,,-93.26171875,-44.43359375,-619.62890625,-19.04296875
1770773153.8010302,,,-117.67578125,-48.33984375,-624.0234375,-37.59765625
1770773153.8048177,,,-107.421875,-44.921875,-491.2109375,-28.80859375
1770773153.808605,,,-80.56640625,-45.8984375,-716.30859375,-15.625
1770773153.8123925,,,-82.51953125,-49.8046875,-949.21875,-10.7421875
1770773153.81618,,,-110.83984375,-43.45703125,-895.01953125,-33.203125
1770773153.8199675,,,-112.79296875,-37.59765625,-504.39453125,-54.19921875
1770773153.823755,,,-85.9375,-37.59765625,-423.828125,-28.80859375
1770773153.8275425,,,-80.56640625,-42.48046875,-742.1875,-21.97265625
1770773153.83133,,,-101.07421875,-46.875,-683.59375,-42.96875
1770773153.836286,,,-104.00390625,-41.9921875,-442.3828125,-39.0625
1770773153.8412418,,,-91.30859375,-48.828125,-606.93359375,-20.99609375
1770773153.8461978,,,-77.63671875,-62.98828125,-752.44140625,-24.90234375
1770773153.8511536,,,-85.9375,-62.5,-571.77734375,-36.1328125
1770773153.8561096,,,-102.5390625,-61.03515625,-547.8515625,-31.73828125
1770773153.8610654,,,-87.40234375,-64.94140625,-806.15234375,-5.37109375
1770773153.8660214,,,-71.77734375,-63.4765625,-956.54296875,1.953125
1770773153.8709774,,,-69.82421875,-60.05859375,-631.34765625,-27.34375
1770773153.8759332,,,-70.3125,-55.17578125,-384.765625,-34.1796875
1770773153.8808892,,,-80.078125,-55.6640625,-685.546875,-1.46484375
1770773153.885845,,,-81.54296875,-54.6875,-896.97265625,7.8125
1770773153.890801,,,-81.54296875,-52.734375,-536.1328125,-11.23046875
1770773153.8957283,,,-103.02734375,-57.12890625,-475.09765625,-15.13671875
1770773153.900656,,,-104.98046875,-57.12890625,-834.47265625,-2.44140625
1770773153.9055834,,,-78.61328125,-53.7109375,-895.01953125,-1.953125
1770773153.910511,,,-52.734375,-49.8046875,-693.359375,-16.6015625
1770773153.9154384,,,-62.01171875,-51.26953125,-845.703125,-18.5546875
1770773153.920366,,,-78.61328125,-57.6171875,-1000.0,-20.5078125
1770773153.9252934,,,-76.171875,-61.03515625,-991.2109375,-17.578125
1770773153.9302208,,,-62.98828125,-58.59375,-873.53515625,-18.5546875
1770773153.9351485,,,-54.19921875,-54.6875,-870.60546875,-28.3203125
1770773153.9400759,,,-67.3828125,-60.05859375,-1000.0,-21.484375
1770773153.9450035,,,-63.96484375,-60.546875,-951.66015625,-32.71484375
1770773153.949931,,,-22.4609375,-53.7109375,-783.69140625,-36.1328125
1770773153.9536033,,,-7.8125,-53.22265625,-852.5390625,-31.25
1770773153.9572759,,,-35.64453125,-51.26953125,-1000.0,-41.50390625
1770773153.9609482,,,-45.8984375,-48.33984375,-972.16796875,-41.015625
1770773153.9646206,,,-35.64453125,-45.8984375,-814.453125,-30.76171875
1770773153.968293,,,-29.296875,-51.26953125,-853.02734375,-17.08984375
1770773153.9719653,,,-49.31640625,-56.15234375,-1000.0,-23.92578125
1770773153.975638,,,-78.61328125,-48.828125,-961.42578125,-37.109375
1770773153.9793103,,,-63.4765625,-44.43359375,-687.98828125,-31.73828125
1770773153.9829826,,,-42.48046875,-54.6875,-760.25390625,-28.3203125
1770773153.9866552,,,-50.29296875,-52.734375,-928.7109375,-34.66796875
1770773153.9903276,,,-55.6640625,-42.96875,-745.60546875,-36.62109375
1770773153.994,,,-48.828125,-47.36328125,-672.8515625,-19.53125
1770773153.9966426,,,-48.33984375,-53.22265625,-857.91015625,2.9296875
1770773153.9992852,,,-53.22265625,-53.7109375,-930.6640625,-10.25390625
1770773154.0019279,,,-46.38671875,-47.36328125,-695.80078125,-35.15625
1770773154.0045707,,,-40.0390625,-48.33984375,-642.08984375,-14.16015625
1770773154.0072134,,,-33.69140625,-53.22265625,-831.54296875,-3.90625
1770773154.009856,,,-29.78515625,-50.29296875,-979.4921875,-11.71875
1770773154.0124986,,,-41.015625,-44.43359375,-991.69921875,-23.92578125
1770773154.0151412,,,-49.8046875,-47.36328125,-973.14453125,-18.06640625
1770773154.0177839,,,-41.9921875,-52.24609375,-992.67578125,1.953125
1770773154.0204268,,,-36.62109375,-53.7109375,-848.14453125,-19.04296875
1770773154.0230694,,,-39.55078125,-46.875,-554.6875,-42.48046875
1770773154.025712,,,-40.0390625,-41.9921875,-610.83984375,-26.3671875
1770773154.0294683,,,-42.48046875,-46.875,-870.1171875,-20.01953125
1770773154.0332246,,,-20.99609375,-47.8515625,-704.58984375,-36.62109375
1770773154.0369809,,,-1.953125,-46.875,-432.6171875,-48.828125
1770773154.040737,,,-0.9765625,-46.875,-609.375,-46.875
1770773154.0444932,,,0.9765625,-46.875,-871.58203125,-34.1796875
1770773154.0482495,,,-2.44140625,-46.875,-873.046875,-39.0625
1770773154.0520058,,,-6.34765625,-45.41015625,-661.62109375,-45.41015625
1770773154.055762,,,-10.7421875,-49.8046875,-666.50390625,-35.64453125
1770773154.0595183,,,-17.08984375,-57.6171875,-993.1640625,-30.76171875
1770773154.0632744,,,-3.41796875,-55.6640625,-722.16796875,-41.50390625
1770773154.0670307,,,17.578125,-60.05859375,-267.578125,-47.36328125
1770773154.070787,,,0.9765625,-64.453125,-615.72265625,-43.45703125
1770773154.0745366,,,-21.97265625,-62.01171875,-803.22265625,-39.0625
1770773154.0782862,,,-18.5546875,-62.01171875,-359.86328125,-41.50390625
1770773154.082036,,,-0.9765625,-66.89453125,-299.31640625,-30.2734375
1770773154.0857856,,,-19.04296875,-67.87109375,-541.50390625,-44.921875
1770773154.0895352,,,-23.92578125,-62.01171875,-546.38671875,-45.8984375
1770773154.093285,,,0.9765625,-55.17578125,-572.75390625,-18.5546875
1770773154.0970347,,,16.11328125,-53.22265625,-685.05859375,-13.18359375
1770773154.1007843,,,15.625,-53.7109375,-841.30859375,-12.20703125
1770773154.104534,,,-6.8359375,-51.7578125,-789.55078125,-32.2265625
1770773154.1082835,,,0.9765625,-53.7109375,-294.43359375,-36.1328125
1770773154.1120334,,,15.625,-61.5234375,-265.13671875,-16.6015625
1770773154.115783,,,14.6484375,-64.453125,-480.95703125,-20.5078125
1770773154.1196535,,,-11.71875,-67.87109375,-578.125,-42.48046875
1770773154.1235242,,,-25.390625,-73.73046875,-357.91015625,-58.10546875
1770773154.1273947,,,0.48828125,-70.3125,-268.06640625,-29.296875
1770773154.1312654,,,11.71875,-63.96484375,-551.26953125,-26.85546875
1770773154.135136,,,1.46484375,-55.6640625,-449.21875,-52.24609375
1770773154.1390064,,,-0.9765625,-53.22265625,-410.15625,-37.59765625
1770773154.142877,,,16.6015625,-58.59375,-616.69921875,-17.08984375
1770773154.1467476,,,29.78515625,-59.5703125,-801.26953125,-13.671875
1770773154.1506183,,,15.625,-57.12890625,-409.66796875,-47.36328125
1770773154.1544888,,,23.4375,-59.08203125,-121.09375,-50.29296875
1770773154.1583595,,,41.50390625,-59.5703125,-352.5390625,-21.484375
1770773154.16223,,,62.98828125,-54.19921875,-354.00390625,-12.6953125
1770773154.1670282,,,62.98828125,-50.29296875,-135.7421875,-21.97265625
1770773154.1718266,,,49.8046875,-57.12890625,-152.83203125,-29.78515625
1770773154.1766248,,,60.546875,-66.40625,-319.3359375,-21.97265625
1770773154.181423,,,77.1484375,-62.5,-368.1640625,0.0
1770773154.1862214,,,69.3359375,-59.5703125,-332.51953125,5.859375
1770773154.1910195,,,51.26953125,-57.6171875,-442.3828125,-16.11328125
1770773154.1958177,,,45.41015625,-62.5,-802.734375,-1.953125
1770773154.2006161,,,55.17578125,-62.01171875,-843.26171875,11.23046875
1770773154.2054143,,,75.1953125,-52.24609375,-250.0,-11.23046875
1770773154.2102125,,,64.94140625,-55.17578125,-147.4609375,-10.7421875
1770773154.215011,,,53.7109375,-62.01171875,-330.56640625,-5.859375
1770773154.219809,,,62.98828125,-67.3828125,-150.390625,-10.7421875
1770773154.2236009,,,73.2421875,-65.91796875,31.73828125,-13.18359375
1770773154.2273927,,,63.4765625,-62.5,-154.296875,-18.5546875
1770773154.2311845,,,42.96875,-61.03515625,-356.4453125,-16.6015625
1770773154.2349763,,,52.734375,-65.4296875,-128.41796875,0.0
1770773154.238768,,,78.125,-71.77734375,62.01171875,0.0
1770773154.2425601,,,77.63671875,-71.77734375,-309.08203125,2.44140625
1770773154.246352,,,50.29296875,-80.078125,-677.24609375,-10.25390625
1770773154.2501438,,,46.875,-73.2421875,-439.94140625,-27.83203125
1770773154.2539356,,,64.94140625,-54.6875,-66.89453125,-26.3671875
1770773154.2577274,,,76.171875,-52.734375,-234.375,-7.8125
1770773154.2615192,,,56.15234375,-54.6875,-678.7109375,-13.671875
1770773154.265311,,,33.203125,-52.24609375,-213.37890625,-49.8046875
1770773154.2690873,,,40.52734375,-54.19921875,101.07421875,-42.96875
1770773154.2728639,,,49.8046875,-56.640625,-84.47265625,-37.59765625
1770773154.2766402,,,26.85546875,-50.29296875,-110.83984375,-56.15234375
1770773154.2804167,,,12.20703125,-47.36328125,61.03515625,-61.5234375
1770773154.284193,,,31.25,-58.10546875,104.00390625,-40.52734375
1770773154.2879694,,,43.45703125,-57.12890625,-182.12890625,-24.4140625
1770773154.291746,,,34.66796875,-52.734375,-333.0078125,-45.41015625
1770773154.2955222,,,16.11328125,-55.17578125,-42.48046875,-65.4296875
1770773154.2992988,,,20.01953125,-54.6875,97.16796875,-49.31640625
1770773154.303075,,,34.1796875,-58.10546875,-348.6328125,-37.109375
1770773154.3068516,,,33.69140625,-56.640625,-351.07421875,-55.17578125
1770773154.310628,,,30.76171875,-45.8984375,-13.671875,-58.59375
1770773154.3144107,,,41.50390625,-43.9453125,-6.8359375,-35.15625
1770773154.3181932,,,48.828125,-50.78125,-128.41796875,-21.97265625
1770773154.321976,,,50.78125,-47.8515625,-15.13671875,-26.85546875
1770773154.3257587,,,41.015625,-50.29296875,199.70703125,-43.9453125
1770773154.3295412,,,36.62109375,-56.15234375,42.96875,-28.80859375
1770773154.333324,,,49.8046875,-56.15234375,-224.12109375,-1.953125
1770773154.3371067,,,52.734375,-60.05859375,-109.86328125,-23.92578125
1770773154.3408892,,,43.9453125,-57.12890625,253.41796875,-43.45703125
1770773154.344672,,,33.69140625,-53.22265625,-38.0859375,-17.578125
1770773154.3484547,,,30.76171875,-56.640625,-540.52734375,-12.6953125
1770773154.3522372,,,50.29296875,-53.7109375,-20.99609375,-27.34375
1770773154.35602,,,64.94140625,-45.8984375,295.41015625,-14.16015625
1770773154.3598056,,,43.45703125,-51.26953125,-6.8359375,-18.06640625
1770773154.363591,,,42.48046875,-55.6640625,44.921875,-14.6484375
1770773154.3673766,,,64.453125,-51.7578125,118.65234375,0.9765625
1770773154.371162,,,67.87109375,-48.828125,54.6875,-5.37109375
1770773154.3749475,,,63.4765625,-53.22265625,-201.66015625,-19.04296875
1770773154.3787332,,,65.91796875,-57.6171875,-451.66015625,-13.18359375
1770773154.3825185,,,58.59375,-56.640625,-160.64453125,-2.9296875
1770773154.3863041,,,55.17578125,-58.10546875,138.18359375,-0.9765625
1770773154.3900895,,,31.25,-64.94140625,-395.99609375,-3.41796875
1770773154.3938751,,,7.32421875,-71.2890625,-546.38671875,-20.5078125
1770773154.3976605,,,33.69140625,-65.4296875,205.56640625,-30.2734375
1770773154.401446,,,52.24609375,-57.12890625,144.04296875,-5.37109375
1770773154.4051454,,,32.71484375,-50.29296875,-99.12109375,-20.99609375
1770773154.4088445,,,14.16015625,-55.6640625,6.8359375,-38.57421875
1770773154.4125438,,,20.01953125,-53.22265625,158.203125,-20.01953125
1770773154.416243,,,45.8984375,-48.828125,12.20703125,-6.34765625
1770773154.4199424,,,41.50390625,-55.6640625,-214.84375,-16.11328125
1770773154.4236417,,,18.06640625,-55.17578125,-285.15625,-25.87890625
1770773154.4273407,,,10.25390625,-53.22265625,-310.546875,-12.6953125
1770773154.43104,,,19.04296875,-53.7109375,-419.921875,3.41796875
1770773154.4347394,,,20.5078125,-52.24609375,-897.4609375,3.41796875
1770773154.4384384,,,-10.7421875,-54.6875,-550.29296875,-37.109375
1770773154.4421377,,,-9.27734375,-50.78125,8.7890625,-31.73828125
1770773154.445837,,,9.27734375,-47.8515625,-200.68359375,-10.7421875
1770773154.4520113,,,13.18359375,-48.33984375,-158.203125,-22.4609375
1770773154.4581857,,,-13.18359375,-56.15234375,6.34765625,-37.109375
1770773154.46436,,,-29.296875,-61.5234375,-67.3828125,-39.0625
1770773154.4705343,,,-29.78515625,-59.5703125,-268.5546875,-23.92578125
1770773154.4767087,,,-23.4375,-61.03515625,-353.515625,-19.04296875
1770773154.482883,,,-33.69140625,-60.546875,-390.13671875,-29.296875
1770773154.4890573,,,-57.12890625,-53.7109375,-405.2734375,-38.57421875
1770773154.4952316,,,-50.78125,-51.7578125,-721.6796875,-8.30078125
1770773154.501406,,,-44.43359375,-56.640625,-670.41015625,-18.5546875
1770773154.5075803,,,-36.62109375,-58.10546875,-205.56640625,-45.8984375
1770773154.5137546,,,-50.78125,-63.96484375,-393.5546875,-40.0390625
1770773154.519929,,,-53.22265625,-63.96484375,-559.08203125,-38.57421875
1770773154.5212803,,,-37.109375,-57.6171875,-308.59375,-32.71484375
1770773154.5226316,,,-50.78125,-56.15234375,-0.48828125,-40.52734375
1770773154.523983,,,-63.96484375,-55.6640625,-211.9140625,-42.48046875
1770773154.5253344,,,-63.96484375,-56.15234375,-434.08203125,-38.0859375
1770773154.5266857,,,-44.921875,-52.24609375,-216.30859375,-34.1796875
1770773154.528037,,,-31.25,-48.828125,-268.5546875,-23.4375
1770773154.5293882,,,-51.7578125,-50.78125,-626.953125,-32.2265625
1770773154.5307395,,,-64.94140625,-50.78125,-645.01953125,-45.41015625
1770773154.532091,,,-48.828125,-51.26953125,-239.74609375,-41.9921875
1770773154.5334423,,,-19.53125,-49.31640625,-37.59765625,-22.4609375
1770773154.5347936,,,-17.578125,-45.41015625,-446.2890625,-7.32421875
1770773154.536145,,,-44.43359375,-45.41015625,-769.53125,-16.6015625
1770773154.5410876,,,-40.52734375,-48.33984375,-307.6171875,-24.4140625
1770773154.54603,,,-18.5546875,-49.8046875,-255.37109375,-11.23046875
1770773154.5509727,,,-14.6484375,-48.33984375,-739.2578125,-10.25390625
1770773154.5559154,,,-42.48046875,-44.43359375,-857.421875,-25.390625
1770773154.5608578,,,-55.6640625,-43.45703125,-363.28125,-36.62109375
1770773154.5658004,,,-36.1328125,-41.015625,-292.48046875,-11.71875
1770773154.570743,,,-27.34375,-41.9921875,-749.51171875,-7.32421875
1770773154.5756855,,,-62.5,-48.828125,-729.98046875,-43.9453125
1770773154.5806282,,,-74.21875,-47.36328125,-120.60546875,-55.17578125
1770773154.5855708,,,-40.0390625,-46.875,-50.78125,-22.4609375
1770773154.5905132,,,-30.76171875,-43.45703125,-233.3984375,-14.16015625
1770773154.595456,,,-49.8046875,-43.9453125,-156.25,-35.15625
1770773154.5992794,,,-57.6171875,-46.875,-17.578125,-40.52734375
1770773154.603103,,,-38.57421875,-45.41015625,-162.59765625,-16.11328125
1770773154.6069264,,,-14.16015625,-41.015625,-308.59375,-11.71875
1770773154.61075,,,-11.71875,-34.1796875,-131.8359375,-27.34375
1770773154.6145735,,,-41.9921875,-45.41015625,-101.5625,-40.0390625
1770773154.618397,,,-41.9921875,-58.10546875,-415.0390625,-23.92578125
1770773154.6222205,,,-29.296875,-57.12890625,-805.6640625,-10.7421875
1770773154.626044,,,-36.1328125,-57.6171875,-520.5078125,-40.0390625
1770773154.6298676,,,-57.12890625,-58.10546875,-34.66796875,-53.7109375
1770773154.633691,,,-59.08203125,-58.59375,-355.95703125,-27.83203125
1770773154.6375146,,,-40.52734375,-58.10546875,-659.66796875,-18.5546875
1770773154.641338,,,-23.92578125,-55.17578125,-154.78515625,-35.15625
1770773154.645045,,,-22.4609375,-57.12890625,20.5078125,-33.203125
1770773154.6487522,,,-47.36328125,-62.01171875,-262.20703125,-26.3671875
1770773154.6524591,,,-47.36328125,-61.5234375,-314.94140625,-22.4609375
1770773154.656166,,,-17.578125,-55.17578125,-78.61328125,-31.25
1770773154.659873,,,-18.06640625,-53.22265625,-85.9375,-32.71484375
1770773154.66358,,,-31.73828125,-63.4765625,-494.62890625,-29.296875
1770773154.667287,,,-16.11328125,-63.4765625,-513.671875,-26.85546875
1770773154.670994,,,2.44140625,-58.10546875,-110.83984375,-28.3203125
1770773154.674701,,,-11.71875,-59.08203125,-185.05859375,-33.203125
1770773154.6784081,,,-30.2734375,-55.17578125,-756.34765625,-19.04296875
1770773154.682115,,,-39.55078125,-55.6640625,-847.65625,-17.08984375
1770773154.685822,,,-17.578125,-51.26953125,-217.7734375,-27.34375
1770773154.6897678,,,8.30078125,-50.78125,-175.29296875,-28.3203125
1770773154.6937134,,,1.46484375,-50.78125,-426.26953125,-40.0390625
1770773154.6976593,,,2.44140625,-45.41015625,-290.52734375,-35.64453125
1770773154.701605,,,12.20703125,-53.22265625,-143.5546875,-22.4609375
1770773154.7055507,,,11.71875,-61.03515625,-271.97265625,-11.71875
1770773154.7094965,,,-15.625,-64.453125,-637.6953125,-15.13671875
1770773154.7134423,,,-39.0625,-59.08203125,-558.59375,-26.3671875
1770773154.717388,,,-22.4609375,-58.10546875,-145.99609375,-20.01953125
1770773154.7213337,,,2.9296875,-59.5703125,-353.515625,2.44140625
1770773154.7252796,,,-14.6484375,-57.6171875,-838.37890625,-14.16015625
1770773154.7292252,,,-47.36328125,-55.6640625,-466.796875,-53.22265625
1770773154.733171,,,-45.41015625,-51.26953125,-131.34765625,-30.76171875
1770773154.736966,,,-23.92578125,-50.29296875,-589.35546875,10.7421875
1770773154.740761,,,-22.94921875,-43.9453125,-684.08203125,-9.765625
1770773154.744556,,,-38.0859375,-41.9921875,-232.91015625,-42.96875
1770773154.748351,,,-35.64453125,-50.78125,-208.984375,-13.671875
1770773154.752146,,,-24.4140625,-49.31640625,-369.140625,7.8125
1770773154.755941,,,-20.01953125,-40.0390625,-544.921875,-4.8828125
1770773154.759736,,,-31.25,-43.45703125,-530.76171875,-24.4140625
1770773154.763531,,,-28.3203125,-42.96875,-281.25,-19.04296875
1770773154.767326,,,-20.99609375,-41.9921875,-637.6953125,20.01953125
1770773154.771121,,,-32.71484375,-47.8515625,-750.9765625,14.16015625
1770773154.7749162,,,-37.109375,-53.7109375,-195.3125,-27.34375
1770773154.778711,,,-35.64453125,-54.6875,-239.2578125,-23.92578125
1770773154.7822175,,,-23.92578125,-55.17578125,-383.30078125,-11.23046875
1770773154.7857237,,,-2.44140625,-58.59375,-260.25390625,-23.92578125
1770773154.78923,,,-2.44140625,-54.6875,-205.56640625,-34.1796875
1770773154.7927363,,,-22.94921875,-58.59375,-474.12109375,-40.0390625
1770773154.7962427,,,-21.484375,-64.94140625,-648.92578125,-35.15625
1770773154.7997491,,,-6.8359375,-63.96484375,-620.60546875,-22.94921875
1770773154.8032553,,,-0.48828125,-60.05859375,-479.98046875,-39.0625
1770773154.8067617,,,-13.18359375,-56.15234375,-499.0234375,-32.71484375
1770773154.810268,,,-38.0859375,-58.59375,-984.86328125,-10.25390625
1770773154.8137743,,,-28.80859375,-60.546875,-637.20703125,-34.66796875
1770773154.8172805,,,5.859375,-54.6875,-92.28515625,-33.203125
1770773154.820787,,,-1.46484375,-54.19921875,-356.93359375,-29.296875
1770773154.8257139,,,-19.53125,-62.5,-432.6171875,-42.48046875
1770773154.8306408,,,-5.859375,-58.10546875,-171.875,-30.76171875
1770773154.8355677,,,7.8125,-60.546875,-146.97265625,-20.01953125
1770773154.8404946,,,-17.578125,-68.359375,-320.80078125,-44.43359375
1770773154.8454216,,,-34.66796875,-65.91796875,-354.00390625,-51.26953125
1770773154.8503485,,,-12.6953125,-67.3828125,-411.62109375,-23.92578125
1770773154.8552754,,,-11.71875,-70.80078125,-458.0078125,-30.76171875
1770773154.8602023,,,-36.1328125,-75.1953125,-725.09765625,-35.15625
1770773154.8651292,,,-62.98828125,-82.51953125,-860.83984375,-43.9453125
1770773154.8700562,,,-60.05859375,-80.078125,-203.125,-53.7109375
1770773154.874983,,,-26.85546875,-77.63671875,-16.11328125,-24.4140625
1770773154.87991,,,-22.4609375,-75.1953125,-221.19140625,-31.25
1770773154.8824797,,,-58.59375,-72.75390625,-142.578125,-58.10546875
1770773154.8850496,,,-52.734375,-72.265625,-4.8828125,-49.8046875
1770773154.8876193,,,-14.6484375,-69.3359375,-142.578125,-24.4140625
1770773154.890189,,,-14.6484375,-65.91796875,-236.328125,-30.2734375
1770773154.8927588,,,-37.59765625,-64.94140625,-221.19140625,-37.59765625
1770773154.8953285,,,-47.8515625,-70.3125,-309.5703125,-37.109375
1770773154.8978982,,,-39.55078125,-72.265625,-395.01953125,-19.04296875
1770773154.900468,,,-24.90234375,-67.87109375,-591.796875,-15.13671875
1770773154.9030378,,,-34.66796875,-69.82421875,-266.11328125,-49.31640625
1770773154.9056075,,,-49.8046875,-72.75390625,86.9140625,-48.33984375
1770773154.9081774,,,-45.41015625,-74.70703125,-308.59375,-18.5546875
1770773154.910747,,,-26.85546875,-75.1953125,-521.97265625,-6.8359375
1770773154.916904,,,-37.109375,-66.89453125,-23.4375,-35.64453125
1770773154.9230607,,,-57.12890625,-57.6171875,61.5234375,-40.0390625
1770773154.9292176,,,-47.8515625,-58.59375,-291.9921875,-23.4375
1770773154.9353743,,,-34.66796875,-62.01171875,-280.2734375,-26.85546875
1770773154.9415312,,,-19.53125,-56.640625,-49.31640625,-26.85546875
1770773154.9476879,,,-32.2265625,-57.6171875,-247.0703125,-27.83203125
1770773154.9538448,,,-38.57421875,-60.546875,-726.07421875,-7.32421875
1770773154.9600017,,,-24.90234375,-55.17578125,-682.6171875,-7.8125
1770773154.9661584,,,-14.16015625,-56.15234375,-4.8828125,-22.4609375
1770773154.9723153,,,-15.13671875,-64.453125,24.90234375,-30.2734375
1770773154.978472,,,-34.1796875,-62.01171875,-266.6015625,-36.1328125
1770773154.984629,,,-33.69140625,-61.03515625,-173.828125,-22.94921875
1770773154.987153,,,-6.8359375,-65.4296875,96.6796875,-24.90234375
1770773154.9896772,,,-10.7421875,-62.98828125,-44.43359375,-26.3671875
1770773154.9922013,,,-37.59765625,-62.5,-408.69140625,-23.4375
1770773154.9947252,,,-40.0390625,-64.94140625,-200.68359375,-31.73828125
1770773154.9972494,,,-10.25390625,-57.6171875,77.1484375,-24.90234375
1770773154.9997735,,,-8.7890625,-54.19921875,-324.70703125,-10.25390625
1770773155.0022976,,,-38.57421875,-60.05859375,-558.10546875,-28.80859375
1770773155.0048218,,,-36.1328125,-63.96484375,-179.6875,-40.0390625
1770773155.007346,,,-12.6953125,-66.40625,74.21875,-27.83203125
1770773155.0098698,,,-12.20703125,-67.3828125,-207.51953125,-4.39453125
1770773155.012394,,,-32.71484375,-64.94140625,-837.40234375,-14.6484375
1770773155.014918,,,-45.8984375,-64.453125,-413.0859375,-45.8984375
1770773155.019885,,,-18.06640625,-65.91796875,159.66796875,-29.78515625
1770773155.0248523,,,4.8828125,-65.4296875,-256.34765625,-11.71875
1770773155.0298193,,,-13.671875,-65.4296875,-416.9921875,-34.66796875
1770773155.0347865,,,-26.85546875,-67.3828125,15.13671875,-53.22265625
1770773155.0397534,,,2.44140625,-62.98828125,33.203125,-27.34375
1770773155.0447206,,,15.13671875,-58.59375,-293.9453125,-22.4609375
1770773155.0496876,,,1.953125,-56.15234375,-453.61328125,-41.015625
1770773155.0546546,,,-16.6015625,-48.828125,-346.19140625,-44.43359375
1770773155.0596218,,,-18.5546875,-48.33984375,-58.59375,-42.48046875
1770773155.0645888,,,-0.9765625,-58.10546875,-513.671875,-11.71875
1770773155.069556,,,-9.27734375,-61.5234375,-758.7890625,-14.6484375
1770773155.074523,,,-18.5546875,-54.6875,-41.9921875,-48.33984375
1770773155.0771263,,,-7.32421875,-53.22265625,2.44140625,-26.3671875
1770773155.0797296,,,0.48828125,-57.12890625,-155.2734375,-7.8125
1770773155.0823328,,,8.7890625,-59.5703125,-25.87890625,-19.04296875
1770773155.084936,,,-8.30078125,-55.17578125,44.921875,-37.59765625
1770773155.0875392,,,-26.3671875,-49.8046875,-117.67578125,-21.484375
1770773155.0901425,,,-17.08984375,-54.19921875,-373.53515625,-3.90625
1770773155.0927458,,,-8.30078125,-57.12890625,-244.140625,-11.23046875
1770773155.095349,,,-18.06640625,-50.29296875,78.61328125,-29.78515625
1770773155.0979524,,,-26.85546875,-46.38671875,-190.91796875,-29.78515625
1770773155.1005554,,,-22.4609375,-48.33984375,-832.03125,-7.32421875
1770773155.1031587,,,-24.4140625,-47.36328125,-479.4921875,-26.3671875
1770773155.105762,,,-33.203125,-47.36328125,157.71484375,-51.7578125
1770773155.1106827,,,-35.64453125,-53.7109375,-290.52734375,-40.52734375
1770773155.1156034,,,-23.4375,-51.26953125,-602.05078125,-27.83203125
1770773155.120524,,,-15.13671875,-51.26953125,-11.23046875,-49.31640625
1770773155.1254447,,,-5.37109375,-60.05859375,92.7734375,-47.8515625
1770773155.1303654,,,-16.11328125,-62.98828125,-189.94140625,-43.9453125
1770773155.1352859,,,-27.34375,-65.91796875,-350.5859375,-35.64453125
1770773155.1402066,,,-1.953125,-63.4765625,-235.3515625,-16.6015625
1770773155.1451273,,,15.13671875,-58.10546875,44.43359375,-6.8359375
1770773155.150048,,,-14.6484375,-62.98828125,-482.91015625,0.9765625
1770773155.1549687,,,-34.66796875,-64.94140625,-621.58203125,-20.01953125
1770773155.1598892,,,-23.92578125,-62.01171875,184.08203125,-32.71484375
1770773155.16481,,,-11.23046875,-64.94140625,209.9609375,-11.71875
1770773155.1697848,,,-26.85546875,-66.40625,-1.46484375,-23.4375
1770773155.1747596,,,-48.828125,-63.4765625,-38.57421875,-39.0625
1770773155.1797345,,,-52.734375,-65.4296875,203.125,-31.73828125
1770773155.1847093,,,-48.828125,-70.3125,179.19921875,-13.671875
1770773155.1896842,,,-56.640625,-75.1953125,-178.22265625,-25.87890625
1770773155.194659,,,-70.80078125,-75.68359375,-169.921875,-53.7109375
1770773155.1996338,,,-74.70703125,-72.75390625,-99.609375,-40.52734375
1770773155.2046087,,,-63.4765625,-72.75390625,-291.9921875,-14.16015625
1770773155.2095835,,,-55.17578125,-70.3125,-452.63671875,-19.04296875
1770773155.2145584,,,-62.98828125,-67.3828125,-103.02734375,-55.17578125
1770773155.2195332,,,-62.5,-66.89453125,111.328125,-57.12890625
1770773155.224508,,,-36.62109375,-69.82421875,-337.890625,-24.90234375
1770773155.225859,,,-17.08984375,-72.265625,-689.94140625,-25.87890625
1770773155.2272098,,,-23.4375,-64.453125,-239.2578125,-50.29296875
1770773155.228561,,,-15.625,-60.546875,-171.875,-35.64453125
1770773155.2299118,,,1.46484375,-66.40625,-428.22265625,-16.11328125
1770773155.2312627,,,11.23046875,-66.40625,-514.16015625,-7.8125
1770773155.2326136,,,2.44140625,-65.91796875,-611.328125,0.0
1770773155.2339644,,,-9.765625,-63.4765625,-744.140625,4.39453125
1770773155.2353153,,,2.44140625,-57.12890625,-907.71484375,24.90234375
1770773155.2366664,,,10.7421875,-51.7578125,-797.36328125,24.90234375
1770773155.2380173,,,12.20703125,-55.6640625,-398.4375,-7.8125
1770773155.2393682,,,1.46484375,-63.4765625,-469.7265625,-12.6953125
1770773155.240719,,,3.41796875,-64.453125,-764.16015625,10.25390625
1770773155.2444727,,,19.04296875,-59.08203125,-642.578125,30.76171875
1770773155.2482266,,,20.5078125,-62.5,-443.359375,24.4140625
1770773155.2519803,,,5.859375,-68.359375,-642.578125,7.8125
1770773155.255734,,,-19.53125,-68.359375,-907.2265625,11.23046875
1770773155.2594879,,,-16.6015625,-66.89453125,-761.71875,16.11328125
1770773155.2632415,,,5.37109375,-60.546875,-742.1875,20.01953125
1770773155.2669952,,,-15.625,-59.08203125,-914.0625,1.953125
1770773155.270749,,,-37.109375,-62.01171875,-968.75,4.39453125
1770773155.2745028,,,-25.390625,-60.05859375,-913.0859375,1.953125
1770773155.2782564,,,-12.6953125,-61.03515625,-647.4609375,-4.39453125
1770773155.2820103,,,-11.71875,-60.546875,-744.140625,3.90625
1770773155.285764,,,-27.34375,-58.10546875,-886.23046875,-7.32421875
1770773155.2895114,,,-24.4140625,-55.17578125,-599.609375,-19.53125
1770773155.293259,,,-8.30078125,-56.640625,-508.7890625,-14.6484375
1770773155.2970064,,,-15.13671875,-60.05859375,-760.25390625,-18.5546875
1770773155.3007536,,,-45.41015625,-57.6171875,-783.69140625,-34.1796875
1770773155.304501,,,-45.8984375,-51.7578125,-665.52734375,-30.2734375
1770773155.3082485,,,-11.23046875,-49.31640625,-844.23828125,-2.44140625
1770773155.311996,,,0.0,-54.19921875,-969.23828125,0.0
1770773155.3157434,,,-30.2734375,-56.640625,-858.88671875,-34.66796875
1770773155.319491,,,-49.31640625,-52.24609375,-498.046875,-38.57421875
1770773155.3232381,,,-30.76171875,-59.08203125,-458.49609375,-16.6015625
1770773155.3269856,,,-13.671875,-60.546875,-581.54296875,-20.99609375
1770773155.330733,,,-24.90234375,-58.59375,-639.16015625,-42.96875
1770773155.3355997,,,-37.59765625,-60.05859375,-650.390625,-51.26953125
1770773155.3404665,,,-30.76171875,-60.546875,-578.125,-30.76171875
1770773155.345333,,,-20.01953125,-60.546875,-768.06640625,-19.53125
1770773155.3501997,,,-25.390625,-59.08203125,-652.34375,-37.59765625
1770773155.3550663,,,-40.52734375,-62.01171875,-527.34375,-46.875
1770773155.359933,,,-33.203125,-63.4765625,-791.50390625,-13.18359375
1770773155.3647997,,,-13.671875,-57.12890625,-962.40234375,3.90625
1770773155.3696663,,,-4.8828125,-53.7109375,-666.9921875,-33.203125
1770773155.374533,,,-6.8359375,-55.6640625,-440.4296875,-47.36328125
1770773155.3793998,,,-14.6484375,-55.6640625,-663.0859375,-37.59765625
1770773155.3842664,,,-1.953125,-52.734375,-676.7578125,-30.2734375
1770773155.389133,,,20.5078125,-49.31640625,-438.4765625,-24.4140625
1770773155.3930285,,,17.08984375,-52.24609375,-407.2265625,-29.296875
1770773155.396924,,,0.48828125,-50.78125,-593.26171875,-25.390625
1770773155.4008198,,,4.8828125,-47.36328125,-606.93359375,-14.16015625
1770773155.4047153,,,18.06640625,-53.22265625,-580.078125,-7.8125
1770773155.4086108,,,-1.46484375,-56.15234375,-538.0859375,-23.4375
1770773155.4125066,,,-34.1796875,-57.6171875,-764.6484375,-11.23046875
1770773155.416402,,,-30.2734375,-62.01171875,-880.859375,-6.34765625
1770773155.4202976,,,-0.9765625,-56.15234375,-371.58203125,-25.87890625
1770773155.4241931,,,-2.44140625,-53.7109375,-255.859375,-21.484375
1770773155.4280887,,,-26.3671875,-56.640625,-500.0,-34.1796875
1770773155.4319844,,,-22.94921875,-55.6640625,-453.61328125,-37.109375
1770773155.43588,,,3.41796875,-54.6875,-225.5859375,-20.01953125
1770773155.4412932,,,14.6484375,-53.7109375,-364.74609375,-7.32421875
1770773155.4467065,,,-10.25390625,-58.59375,-604.4921875,-22.94921875
1770773155.4521196,,,-29.296875,-62.01171875,-491.69921875,-31.73828125
1770773155.457533,,,-5.859375,-55.6640625,-315.91796875,-11.23046875
1770773155.4629462,,,3.90625,-52.24609375,-439.94140625,-6.34765625
1770773155.4683595,,,-13.671875,-49.8046875,-749.0234375,-22.94921875
1770773155.4737728,,,-39.55078125,-51.7578125,-776.3671875,-31.73828125
1770773155.479186,,,-47.36328125,-57.12890625,-544.921875,-26.3671875
1770773155.484599,,,-16.6015625,-57.12890625,-559.5703125,-8.30078125
1770773155.4900124,,,-20.01953125,-58.59375,-996.58203125,-3.41796875
1770773155.4954257,,,-48.828125,-57.6171875,-708.984375,-40.0390625
1770773155.500839,,,-27.34375,-54.19921875,-208.49609375,-26.3671875
1770773155.5029407,,,-3.41796875,-51.7578125,-395.5078125,-13.18359375
1770773155.5050423,,,-11.23046875,-53.22265625,-448.2421875,-22.94921875
1770773155.507144,,,-30.76171875,-58.10546875,-228.02734375,-28.3203125
1770773155.5092456,,,-33.69140625,-53.7109375,-228.515625,-16.11328125
1770773155.5113473,,,-8.7890625,-49.8046875,-410.15625,-2.9296875
1770773155.513449,,,6.8359375,-50.29296875,-636.23046875,-7.8125
1770773155.5155506,,,-22.4609375,-50.29296875,-660.15625,-35.64453125
1770773155.5176523,,,-38.57421875,-52.734375,-380.859375,-40.0390625
1770773155.519754,,,-19.53125,-57.12890625,-658.69140625,-7.32421875
1770773155.5218556,,,-11.71875,-52.734375,-687.98828125,-14.16015625
1770773155.5239573,,,-28.3203125,-54.19921875,-341.30859375,-33.203125
1770773155.526059,,,-35.64453125,-62.5,-483.88671875,-25.390625
1770773155.5320616,,,-23.92578125,-56.640625,-684.08203125,-14.6484375
1770773155.538064,,,-25.87890625,-50.29296875,-445.80078125,-29.78515625
1770773155.5440667,,,-22.4609375,-50.78125,-38.57421875,-47.36328125
1770773155.5500693,,,-41.015625,-49.8046875,-228.02734375,-54.6875
1770773155.5560718,,,-54.6875,-46.38671875,-342.7734375,-47.8515625
1770773155.5620744,,,-37.109375,-48.33984375,-351.07421875,-41.015625
1770773155.568077,,,-43.9453125,-51.26953125,-204.58984375,-64.94140625
1770773155.5740795,,,-73.73046875,-53.22265625,-253.90625,-70.3125
1770773155.5800822,,,-101.5625,-58.59375,-716.30859375,-68.359375
1770773155.5860848,,,-112.79296875,-55.6640625,-305.6640625,-86.9140625
1770773155.5920873,,,-89.84375,-53.22265625,99.12109375,-79.1015625
1770773155.59809,,,-109.86328125,-53.22265625,-183.59375,-90.8203125
1770773155.5996273,,,-130.37109375,-50.78125,-231.4453125,-102.05078125
1770773155.6011643,,,-106.93359375,-50.78125,-72.75390625,-90.8203125
1770773155.6027017,,,-81.0546875,-44.921875,-212.40234375,-75.68359375
1770773155.604239,,,-93.26171875,-45.41015625,-553.22265625,-78.125
1770773155.6057763,,,-113.28125,-54.6875,-492.1875,-100.09765625
1770773155.6073136,,,-82.51953125,-54.19921875,-261.23046875,-85.9375
1770773155.6088507,,,-50.29296875,-45.8984375,-257.8125,-64.94140625
1770773155.610388,,,-55.17578125,-51.26953125,-583.0078125,-59.5703125
1770773155.6119254,,,-81.54296875,-57.6171875,-682.6171875,-74.21875
1770773155.6134624,,,-65.4296875,-51.7578125,-33.203125,-78.61328125
1770773155.6149998,,,-28.3203125,-47.8515625,7.8125,-39.55078125
1770773155.616537,,,-20.5078125,-50.78125,-214.84375,-40.52734375
1770773155.620263,,,-42.48046875,-50.78125,-99.12109375,-64.94140625
1770773155.6239893,,,-50.29296875,-49.8046875,116.69921875,-46.38671875
1770773155.6277153,,,-31.73828125,-49.31640625,3.41796875,-15.625
1770773155.6314414,,,-26.3671875,-50.29296875,-170.8984375,-18.5546875
1770773155.6351676,,,-43.9453125,-58.10546875,-50.78125,-54.19921875
1770773155.6388936,,,-49.8046875,-58.59375,-119.140625,-58.10546875
1770773155.6426196,,,-47.36328125,-58.10546875,-271.484375,-34.1796875
1770773155.6463459,,,-45.41015625,-66.89453125,-791.9921875,-25.390625
1770773155.6500719,,,-53.22265625,-67.3828125,-582.51953125,-60.546875
1770773155.6537979,,,-64.94140625,-60.05859375,132.32421875,-69.82421875
1770773155.657524,,,-56.15234375,-59.08203125,-60.05859375,-37.109375
1770773155.66125,,,-39.55078125,-59.08203125,-118.1640625,-29.78515625
1770773155.665074,,,-20.5078125,-54.6875,112.79296875,-36.1328125
1770773155.668898,,,-25.390625,-52.734375,77.1484375,-27.83203125
1770773155.672722,,,-35.64453125,-56.15234375,-160.64453125,-9.765625
1770773155.676546,,,-22.4609375,-53.7109375,-127.44140625,-3.90625
1770773155.68037,,,-13.18359375,-53.22265625,30.2734375,-15.13671875
1770773155.684194,,,-42.96875,-60.05859375,-123.53515625,-38.0859375
1770773155.688018,,,-59.5703125,-60.546875,-652.83203125,-22.94921875
1770773155.691842,,,-36.1328125,-56.640625,-654.78515625,-11.23046875
1770773155.695666,,,-15.625,-51.26953125,11.23046875,-28.80859375
1770773155.69949,,,-35.64453125,-56.640625,-117.1875,-37.59765625
1770773155.703314,,,-50.78125,-58.59375,-455.078125,-42.48046875
1770773155.707138,,,-35.15625,-60.05859375,-220.21484375,-39.0625
1770773155.7121146,,,-17.578125,-60.05859375,124.0234375,-31.25
1770773155.717091,,,-20.01953125,-58.10546875,-51.26953125,-25.390625
1770773155.7220676,,,-42.96875,-65.91796875,-244.140625,-37.109375
1770773155.727044,,,-39.0625,-67.87109375,-62.98828125,-39.55078125
1770773155.7320206,,,-17.578125,-64.94140625,1.46484375,-21.97265625
1770773155.7369971,,,-15.13671875,-61.03515625,-303.22265625,-14.16015625
1770773155.7419734,,,-54.19921875,-62.01171875,-748.046875,-28.3203125
1770773155.74695,,,-83.984375,-65.4296875,-385.7421875,-56.15234375
1770773155.7519264,,,-47.36328125,-60.05859375,85.9375,-47.36328125
1770773155.756903,,,-22.94921875,-57.6171875,-166.015625,-26.85546875
1770773155.7618794,,,-50.29296875,-58.59375,-284.66796875,-44.43359375
1770773155.766856,,,-58.10546875,-52.24609375,-73.2421875,-48.33984375
1770773155.7706115,,,-40.0390625,-52.734375,-129.8828125,-29.296875
1770773155.774367,,,-26.3671875,-61.5234375,-580.56640625,-16.11328125
1770773155.7781227,,,-53.22265625,-64.94140625,-581.54296875,-41.015625
1770773155.7818782,,,-78.61328125,-63.4765625,-111.81640625,-59.08203125
1770773155.7856338,,,-68.84765625,-65.91796875,-41.50390625,-41.9921875
1770773155.7893896,,,-58.59375,-64.94140625,-363.28125,-31.73828125
1770773155.7931452,,,-63.4765625,-62.01171875,-534.66796875,-40.52734375
1770773155.7969007,,,-72.265625,-59.5703125,-227.05078125,-58.10546875
1770773155.8006563,,,-58.59375,-63.4765625,-38.0859375,-47.36328125
1770773155.804412,,,-40.52734375,-70.3125,-523.92578125,-29.78515625
1770773155.8081675,,,-37.59765625,-68.84765625,-576.171875,-51.7578125
1770773155.811923,,,-51.7578125,-61.03515625,-97.16796875,-61.5234375
1770773155.8158216,,,-59.08203125,-58.10546875,-186.5234375,-35.64453125
1770773155.8197203,,,-40.0390625,-60.05859375,-305.6640625,-23.92578125
1770773155.823619,,,-38.0859375,-62.98828125,-129.8828125,-39.55078125
1770773155.8275177,,,-65.91796875,-63.96484375,-87.40234375,-58.10546875
1770773155.8314164,,,-64.94140625,-62.5,-401.3671875,-37.59765625
1770773155.835315,,,-48.828125,-60.05859375,-780.76171875,-20.5078125
1770773155.8392136,,,-41.50390625,-65.91796875,-537.59765625,-33.69140625
1770773155.8431122,,,-47.36328125,-68.84765625,-27.34375,-51.7578125
1770773155.8470109,,,-49.8046875,-62.98828125,-305.6640625,-46.875
1770773155.8509097,,,-45.41015625,-63.96484375,-688.96484375,-29.296875
1770773155.8548083,,,-43.9453125,-62.01171875,-225.5859375,-37.109375
1770773155.858707,,,-40.0390625,-61.5234375,-25.87890625,-37.109375
1770773155.8623152,,,-51.26953125,-65.91796875,-329.58984375,-33.69140625
1770773155.8659236,,,-52.734375,-62.5,-331.54296875,-27.83203125
1770773155.869532,,,-37.59765625,-59.5703125,-127.44140625,-15.13671875
1770773155.8731403,,,-40.0390625,-55.6640625,-111.328125,-17.578125
1770773155.8767486,,,-56.640625,-58.10546875,-368.65234375,-28.80859375
1770773155.880357,,,-67.3828125,-66.40625,-648.92578125,-12.20703125
1770773155.8839655,,,-71.2890625,-62.98828125,-467.7734375,-25.87890625
1770773155.8875737,,,-45.41015625,-59.5703125,-234.86328125,-41.9921875
1770773155.891182,,,-38.57421875,-62.5,-677.24609375,-32.71484375
1770773155.8947904,,,-76.66015625,-59.5703125,-889.16015625,-53.7109375
1770773155.8983989,,,-65.91796875,-46.38671875,-280.76171875,-62.5
1770773155.902007,,,-43.45703125,-50.29296875,-189.453125,-51.26953125
1770773155.905654,,,-64.94140625,-63.96484375,-419.43359375,-69.3359375
1770773155.9093006,,,-84.9609375,-66.89453125,-325.1953125,-85.44921875
1770773155.9129474,,,-94.7265625,-64.94140625,-162.109375,-79.1015625
1770773155.916594,,,-78.125,-63.4765625,-263.671875,-64.94140625
1770773155.9202409,,,-71.2890625,-59.08203125,-476.5625,-66.40625
1770773155.9238877,,,-99.12109375,-60.546875,-618.1640625,-76.66015625
1770773155.9275343,,,-105.46875,-68.84765625,-484.86328125,-74.70703125
1770773155.9311812,,,-71.2890625,-73.73046875,-449.21875,-52.24609375
1770773155.9348278,,,-74.21875,-71.77734375,-839.84375,-37.59765625
1770773155.9384747,,,-94.23828125,-62.98828125,-496.09375,-74.70703125
1770773155.9421213,,,-83.0078125,-58.59375,-251.953125,-77.1484375
1770773155.945768,,,-72.265625,-60.05859375,-706.0546875,-38.0859375
1770773155.9496224,,,-69.3359375,-62.01171875,-715.8203125,-48.33984375
1770773155.9534767,,,-78.61328125,-60.546875,-232.421875,-76.171875
1770773155.957331,,,-81.0546875,-60.546875,-177.734375,-61.5234375
1770773155.9611855,,,-75.1953125,-62.5,-373.046875,-41.50390625
1770773155.9650397,,,-60.05859375,-65.4296875,-347.65625,-32.71484375
1770773155.968894,,,-61.5234375,-64.94140625,-387.20703125,-42.48046875
1770773155.9727483,,,-89.35546875,-64.453125,-532.71484375,-55.17578125
1770773155.9766026,,,-91.796875,-69.82421875,-787.59765625,-24.4140625
1770773155.9804568,,,-76.66015625,-69.3359375,-781.73828125,-23.92578125
1770773155.9843113,,,-78.61328125,-65.4296875,-282.71484375,-59.5703125
1770773155.9881656,,,-87.890625,-64.94140625,-284.1796875,-55.17578125
1770773155.99202,,,-88.37890625,-62.98828125,-467.7734375,-41.9921875
1770773155.995688,,,-73.73046875,-64.94140625,-341.796875,-40.0390625
1770773155.9993558,,,-39.55078125,-62.01171875,-178.7109375,-34.1796875
1770773156.0030239,,,-55.17578125,-56.15234375,-374.51171875,-33.203125
1770773156.006692,,,-72.265625,-55.17578125,-678.22265625,-31.73828125
1770773156.01036,,,-44.43359375,-53.7109375,-480.46875,-27.83203125
1770773156.014028,,,-28.80859375,-51.26953125,-443.359375,-18.06640625
1770773156.017696,,,-31.73828125,-50.78125,-630.859375,-21.97265625
1770773156.021364,,,-54.19921875,-50.29296875,-953.61328125,-9.765625
1770773156.025032,,,-60.546875,-48.33984375,-685.05859375,-20.5078125
1770773156.0286999,,,-20.01953125,-48.828125,-115.234375,-24.90234375
1770773156.032368,,,-12.20703125,-49.31640625,-369.140625,-9.27734375
1770773156.036036,,,-43.45703125,-48.828125,-522.94921875,-21.97265625
1770773156.0409389,,,-44.43359375,-52.24609375,-286.1328125,-28.80859375
1770773156.0458417,,,-12.6953125,-49.31640625,-222.65625,-17.578125
1770773156.0507445,,,-5.859375,-43.45703125,-443.84765625,-10.25390625
1770773156.0556474,,,-29.296875,-45.41015625,-444.82421875,-33.69140625
1770773156.0605502,,,-34.66796875,-50.29296875,-271.97265625,-41.50390625
1770773156.065453,,,-38.0859375,-51.7578125,-407.2265625,-19.53125
1770773156.070356,,,-30.76171875,-53.22265625,-781.25,-0.48828125
1770773156.0752587,,,-55.17578125,-57.6171875,-861.328125,-20.01953125
1770773156.0801616,,,-62.98828125,-55.17578125,-346.6796875,-53.7109375
1770773156.0850644,,,-39.0625,-49.31640625,-213.37890625,-38.0859375
1770773156.0899673,,,-19.53125,-45.8984375,-440.4296875,-24.90234375
1770773156.09487,,,-26.85546875,-49.31640625,-366.69921875,-40.52734375
1770773156.0985966,,,-49.31640625,-49.8046875,-188.4765625,-39.0625
1770773156.1023233,,,-34.66796875,-49.8046875,-302.734375,-21.484375
1770773156.1060498,,,-24.90234375,-55.17578125,-463.37890625,-13.18359375
1770773156.1097765,,,-32.71484375,-59.08203125,-356.4453125,-28.80859375
1770773156.113503,,,-46.38671875,-61.03515625,-314.94140625,-41.50390625
1770773156.1172295,,,-53.7109375,-65.91796875,-632.8125,-21.97265625
1770773156.1209562,,,-50.78125,-61.5234375,-868.1640625,-17.578125
1770773156.1246827,,,-26.3671875,-48.828125,-494.140625,-42.96875
1770773156.1284094,,,-33.69140625,-50.29296875,-177.734375,-53.22265625
1770773156.1321359,,,-58.59375,-63.4765625,-494.140625,-33.203125
1770773156.1358626,,,-43.45703125,-63.96484375,-738.76953125,-20.99609375
1770773156.139589,,,-22.94921875,-57.12890625,-367.1875,-33.203125
1770773156.1433551,,,-37.59765625,-58.10546875,-214.35546875,-35.64453125
1770773156.147121,,,-48.33984375,-60.05859375,-650.87890625,-19.04296875
1770773156.150887,,,-41.9921875,-58.59375,-786.1328125,-18.5546875
1770773156.154653,,,-13.18359375,-49.31640625,-323.2421875,-30.2734375
1770773156.1584191,,,-1.953125,-42.48046875,-412.109375,-16.11328125
1770773156.1621852,,,-29.296875,-43.45703125,-868.1640625,-16.6015625
1770773156.165951,,,-47.8515625,-49.8046875,-789.0625,-24.4140625
1770773156.169717,,,-27.83203125,-50.29296875,-332.03125,-23.92578125
1770773156.1734831,,,-6.34765625,-47.36328125,-291.50390625,-27.34375
1770773156.177249,,,-35.64453125,-52.24609375,-683.59375,-34.1796875
1770773156.181015,,,-46.38671875,-52.24609375,-635.7421875,-33.69140625
1770773156.184781,,,-25.87890625,-49.31640625,-242.1875,-26.85546875
1770773156.1886744,,,-15.625,-48.828125,-301.7578125,-23.4375
1770773156.192568,,,-19.53125,-48.33984375,-659.66796875,-28.80859375
1770773156.1964617,,,-33.203125,-41.50390625,-632.8125,-35.64453125
1770773156.200355,,,-19.53125,-37.59765625,-291.9921875,-17.08984375
1770773156.2042484,,,3.41796875,-45.41015625,-412.109375,-3.41796875
1770773156.208142,,,-32.2265625,-51.7578125,-928.22265625,-11.71875
1770773156.2120357,,,-55.17578125,-51.26953125,-835.9375,-40.0390625
1770773156.215929,,,-24.4140625,-48.33984375,-278.80859375,-34.66796875
1770773156.2198224,,,-14.6484375,-54.19921875,-463.37890625,-2.9296875
1770773156.223716,,,-25.390625,-59.5703125,-781.25,-13.18359375
1770773156.2276096,,,-36.62109375,-53.22265625,-447.265625,-47.36328125
1770773156.231503,,,-27.83203125,-53.7109375,-320.80078125,-26.3671875
1770773156.2351947,,,-22.4609375,-60.05859375,-545.41015625,-11.71875
1770773156.238886,,,-22.4609375,-60.05859375,-570.3125,-25.87890625
1770773156.2425778,,,-40.0390625,-60.05859375,-360.3515625,-40.0390625
1770773156.2462692,,,-50.78125,-62.5,-336.9140625,-34.1796875
1770773156.249961,,,-27.83203125,-64.94140625,-588.37890625,-16.6015625
1770773156.2536526,,,-26.85546875,-67.3828125,-768.5546875,-19.53125
1770773156.257344,,,-53.7109375,-65.4296875,-729.4921875,-34.66796875
1770773156.2610357,,,-58.10546875,-66.40625,-635.25390625,-31.25
1770773156.264727,,,-39.0625,-74.21875,-785.64453125,0.0
1770773156.2684188,,,-30.76171875,-75.68359375,-897.4609375,-16.11328125
1770773156.2721102,,,-35.64453125,-70.80078125,-420.8984375,-54.19921875
1770773156.275802,,,-36.1328125,-69.3359375,-322.265625,-42.96875
1770773156.2795918,,,-23.92578125,-68.84765625,-496.58203125,-20.5078125
1770773156.2833815,,,-20.99609375,-67.87109375,-394.04296875,-12.20703125
1770773156.2871714,,,-33.69140625,-68.359375,-308.10546875,-27.34375
1770773156.2909613,,,-51.26953125,-69.3359375,-487.3046875,-43.45703125
1770773156.2947512,,,-59.5703125,-72.265625,-607.91015625,-35.15625
1770773156.298541,,,-29.296875,-72.75390625,-656.73828125,-21.484375
1770773156.3023307,,,-26.3671875,-71.2890625,-578.125,-36.1328125
1770773156.3061206,,,-47.8515625,-71.2890625,-554.6875,-45.41015625
1770773156.3099105,,,-48.33984375,-69.3359375,-965.33203125,-23.4375
1770773156.3137002,,,-47.8515625,-68.359375,-771.97265625,-21.97265625
1770773156.31749,,,-30.2734375,-71.77734375,-242.67578125,-28.3203125
1770773156.32128,,,-34.66796875,-67.3828125,-552.24609375,-24.90234375
1770773156.3274245,,,-51.26953125,-60.546875,-800.78125,-23.4375
1770773156.333569,,,-42.96875,-58.59375,-358.3984375,-32.71484375
1770773156.3397138,,,-16.6015625,-54.6875,-288.57421875,-13.671875
1770773156.3458583,,,-16.6015625,-54.6875,-547.36328125,-15.13671875
1770773156.3520029,,,-37.109375,-56.640625,-568.84765625,-26.85546875
1770773156.3581476,,,-39.0625,-60.546875,-559.5703125,-11.71875
1770773156.3642921,,,-25.390625,-57.12890625,-608.88671875,-10.7421875
1770773156.3704367,,,-26.3671875,-61.03515625,-795.8984375,-18.5546875
1770773156.3765812,,,-54.6875,-62.5,-810.05859375,-43.9453125
1770773156.3827257,,,-55.17578125,-56.15234375,-316.40625,-52.24609375
1770773156.3888705,,,-28.3203125,-59.5703125,-382.32421875,-29.296875
1770773156.395015,,,-19.04296875,-60.546875,-546.38671875,-35.15625
1770773156.3977149,,,-31.25,-54.19921875,-545.8984375,-51.7578125
1770773156.400415,,,-40.0390625,-57.6171875,-428.22265625,-51.7578125
1770773156.4031148,,,-24.90234375,-65.4296875,-375.9765625,-35.15625
1770773156.4058146,,,-10.25390625,-67.3828125,-608.88671875,-31.25
1770773156.4085145,,,-15.625,-68.84765625,-496.09375,-56.15234375
1770773156.4112144,,,-38.0859375,-67.3828125,-506.34765625,-55.17578125
1770773156.4139144,,,-32.2265625,-62.01171875,-732.421875,-24.4140625
1770773156.4166143,,,-11.23046875,-62.01171875,-764.16015625,-15.13671875
1770773156.4193141,,,-14.6484375,-63.4765625,-435.546875,-29.78515625
1770773156.4220142,,,-24.4140625,-59.5703125,-264.6484375,-35.15625
1770773156.424714,,,-21.97265625,-60.05859375,-589.35546875,-3.90625
1770773156.427414,,,-11.71875,-60.546875,-829.58984375,1.46484375
1770773156.4298327,,,-1.46484375,-61.5234375,-395.01953125,-22.4609375
1770773156.4322517,,,-7.32421875,-61.5234375,-147.4609375,-17.578125
1770773156.4346704,,,-10.7421875,-64.453125,-536.62109375,-0.48828125
1770773156.4370892,,,-12.6953125,-68.84765625,-819.82421875,8.30078125
1770773156.4395082,,,-4.8828125,-61.03515625,-520.5078125,3.41796875
1770773156.441927,,,-4.39453125,-52.734375,-547.36328125,-3.41796875
1770773156.4443457,,,-13.18359375,-56.640625,-794.43359375,-14.16015625
1770773156.4467647,,,-6.34765625,-55.17578125,-561.5234375,-0.9765625
1770773156.4491835,,,-2.44140625,-45.8984375,-191.89453125,13.18359375
1770773156.4516022,,,-4.39453125,-46.875,-154.78515625,-5.859375
1770773156.4540212,,,-12.20703125,-51.7578125,-678.7109375,3.90625
1770773156.45644,,,-12.20703125,-51.7578125,-852.5390625,10.25390625
1770773156.4613078,,,10.7421875,-52.734375,-197.75390625,-12.6953125
1770773156.4661756,,,13.671875,-60.546875,-171.875,-13.18359375
1770773156.471043,,,-17.578125,-63.4765625,-446.2890625,-26.85546875
1770773156.475911,,,-10.25390625,-60.05859375,-237.79296875,-25.390625
1770773156.4807787,,,13.18359375,-58.59375,-47.8515625,-12.20703125
1770773156.4856465,,,12.20703125,-55.17578125,-380.859375,-8.30078125
1770773156.4905143,,,-18.06640625,-57.12890625,-808.10546875,-27.34375
1770773156.495382,,,-38.57421875,-59.5703125,-622.0703125,-46.875
1770773156.5002496,,,-11.23046875,-60.05859375,-206.0546875,-29.78515625
1770773156.5051174,,,6.34765625,-60.05859375,-349.609375,-10.7421875
1770773156.5099852,,,-13.671875,-62.01171875,-657.71484375,-20.99609375
1770773156.514853,,,-16.11328125,-64.453125,-301.7578125,-43.9453125
1770773156.5186749,,,-4.39453125,-60.05859375,-134.27734375,-25.87890625
1770773156.5224965,,,-8.7890625,-61.5234375,-337.40234375,-25.390625
1770773156.5263183,,,-8.7890625,-61.5234375,-363.76953125,-43.45703125
1770773156.53014,,,-4.8828125,-58.10546875,-129.39453125,-37.109375
1770773156.5339618,,,6.8359375,-62.01171875,-106.93359375,-13.18359375
1770773156.5377836,,,0.48828125,-66.40625,-456.54296875,0.0
1770773156.5416052,,,-22.4609375,-71.77734375,-607.91015625,-29.78515625
1770773156.545427,,,-39.55078125,-69.3359375,-291.9921875,-57.12890625
1770773156.5492487,,,-22.94921875,-65.91796875,-110.83984375,-30.76171875
1770773156.5530705,,,-12.20703125,-68.359375,-567.3828125,-2.9296875
1770773156.5568922,,,-16.6015625,-63.96484375,-643.06640625,-20.5078125
1770773156.560714,,,-24.4140625,-60.546875,-298.33984375,-41.9921875
1770773156.565617,,,-37.59765625,-62.5,-313.96484375,-42.96875
1770773156.5705202,,,-28.3203125,-61.5234375,-479.00390625,-35.15625
1770773156.5754232,,,-10.7421875,-61.5234375,-361.81640625,-35.15625
1770773156.5803263,,,-16.11328125,-62.98828125,-83.49609375,-52.734375
1770773156.5852294,,,-36.1328125,-66.40625,-242.1875,-50.78125
1770773156.5901325,,,-29.296875,-74.21875,-512.6953125,-34.66796875
1770773156.5950356,,,-6.8359375,-71.2890625,-407.71484375,-32.71484375
1770773156.5999386,,,-9.27734375,-68.84765625,-88.37890625,-44.43359375
1770773156.6048417,,,-24.4140625,-71.2890625,-333.49609375,-41.015625
1770773156.6097448,,,-32.71484375,-68.84765625,-800.29296875,-30.76171875
1770773156.6146479,,,-20.99609375,-65.4296875,-383.30078125,-41.50390625
1770773156.619551,,,-5.37109375,-63.96484375,-17.578125,-26.85546875
1770773156.6221619,,,-20.01953125,-70.3125,-303.7109375,-22.94921875
1770773156.6247728,,,-26.3671875,-72.75390625,-330.56640625,-29.78515625
1770773156.6273837,,,-7.8125,-72.265625,-254.8828125,-14.6484375
1770773156.6299946,,,0.48828125,-70.80078125,-250.48828125,-19.04296875
1770773156.6326056,,,-28.3203125,-67.87109375,-489.74609375,-35.64453125
1770773156.6352165,,,-41.50390625,-67.3828125,-775.87890625,-34.1796875
1770773156.6378274,,,-15.13671875,-65.4296875,-423.33984375,-36.62109375
1770773156.6404383,,,14.6484375,-63.96484375,-129.39453125,-28.3203125
1770773156.6430492,,,6.34765625,-62.01171875,-570.3125,-15.13671875
1770773156.6456602,,,-27.34375,-60.546875,-735.83984375,-42.96875
1770773156.648271,,,-23.4375,-55.17578125,-145.01953125,-57.12890625
1770773156.650882,,,-7.8125,-57.6171875,-157.2265625,-34.1796875
1770773156.6557565,,,-35.64453125,-70.3125,-549.8046875,-49.31640625
1770773156.6606307,,,-62.5,-64.453125,-496.58203125,-77.63671875
1770773156.6655052,,,-56.640625,-60.546875,-192.87109375,-69.82421875
1770773156.6703796,,,-53.22265625,-65.4296875,-308.10546875,-54.6875
1770773156.675254,,,-59.5703125,-55.17578125,-485.83984375,-54.19921875
1770773156.6801286,,,-95.703125,-43.9453125,-590.8203125,-86.42578125
1770773156.6850028,,,-127.9296875,-47.36328125,-665.52734375,-110.3515625
1770773156.6898773,,,-114.74609375,-51.7578125,-707.51953125,-93.26171875
1770773156.6947517,,,-116.69921875,-56.640625,-975.09765625,-74.70703125
1770773156.699626,,,-146.97265625,-54.19921875,-794.43359375,-126.953125
1770773156.7045004,,,-145.5078125,-49.31640625,-370.1171875,-145.99609375
1770773156.709375,,,-144.53125,-55.17578125,-522.4609375,-130.37109375
1770773156.713173,,,-144.04296875,-62.98828125,-587.890625,-140.13671875
1770773156.7169712,,,-146.97265625,-64.94140625,-360.83984375,-157.2265625
1770773156.7207692,,,-166.50390625,-60.546875,-318.359375,-164.55078125
1770773156.7245672,,,-158.69140625,-53.7109375,-501.46484375,-148.92578125
1770773156.7283654,,,-129.8828125,-48.33984375,-514.16015625,-139.6484375
1770773156.7321634,,,-127.9296875,-47.36328125,-507.32421875,-135.25390625
1770773156.7359614,,,-146.484375,-49.8046875,-527.83203125,-138.18359375
1770773156.7397597,,,-143.5546875,-51.26953125,-749.51171875,-111.328125
1770773156.7435577,,,-129.8828125,-54.19921875,-693.359375,-94.7265625
1770773156.7473557,,,-108.88671875,-57.6171875,-202.1484375,-117.67578125
1770773156.751154,,,-111.328125,-62.01171875,-298.828125,-122.0703125
1770773156.754952,,,-102.5390625,-61.03515625,-589.35546875,-103.515625
1770773156.7587695,,,-75.1953125,-62.98828125,-383.7890625,-89.35546875
1770773156.7625873,,,-56.640625,-68.359375,49.8046875,-75.68359375
1770773156.766405,,,-63.96484375,-71.77734375,-132.8125,-73.2421875
1770773156.7702227,,,-75.1953125,-69.3359375,-456.0546875,-78.125
1770773156.7740402,,,-56.15234375,-64.453125,-254.39453125,-53.22265625
1770773156.777858,,,-23.92578125,-62.5,-143.5546875,-37.109375
1770773156.7816758,,,-36.1328125,-69.3359375,-389.16015625,-48.828125
1770773156.7854934,,,-62.98828125,-68.84765625,-679.19921875,-55.17578125
1770773156.789311,,,-52.24609375,-61.03515625,-312.5,-69.3359375
1770773156.7931287,,,-5.37109375,-57.12890625,161.1328125,-51.7578125
1770773156.7969465,,,7.32421875,-54.19921875,-224.609375,-24.90234375
1770773156.800764,,,-32.71484375,-54.6875,-521.484375,-37.109375
1770773156.8045032,,,-28.3203125,-57.6171875,-83.984375,-44.43359375
1770773156.8082423,,,4.39453125,-55.17578125,-65.4296875,-23.92578125
1770773156.8119814,,,10.7421875,-51.7578125,-493.1640625,-12.20703125
1770773156.8157208,,,-12.6953125,-55.17578125,-435.05859375,-30.76171875
1770773156.81946,,,-8.7890625,-56.640625,13.18359375,-35.15625
1770773156.823199,,,19.04296875,-53.22265625,-146.97265625,-8.7890625
1770773156.8269382,,,19.53125,-53.22265625,-429.19921875,-4.39453125
1770773156.8306773,,,-0.9765625,-58.10546875,-244.62890625,-32.2265625
1770773156.8344164,,,-11.71875,-57.6171875,-7.32421875,-30.76171875
1770773156.8381557,,,-0.9765625,-56.640625,78.61328125,0.48828125
1770773156.8418949,,,12.6953125,-60.05859375,-478.02734375,22.4609375
1770773156.845634,,,0.9765625,-60.05859375,-644.53125,-2.44140625
1770773156.8494925,,,-27.34375,-60.546875,22.94921875,-38.57421875
1770773156.853351,,,-23.4375,-62.5,-29.296875,-17.578125
1770773156.8572094,,,-0.9765625,-64.453125,-200.68359375,-5.859375
1770773156.861068,,,5.37109375,-63.96484375,-104.00390625,-8.7890625
1770773156.8649266,,,-15.625,-64.453125,-79.1015625,-18.5546875
1770773156.868785,,,-10.7421875,-64.453125,-334.9609375,-8.30078125
1770773156.8726435,,,5.37109375,-62.5,-807.6171875,20.01953125
1770773156.876502,,,4.39453125,-60.546875,-551.26953125,-7.8125
1770773156.8803606,,,-3.90625,-57.6171875,39.0625,-36.1328125
1770773156.8842192,,,0.48828125,-54.6875,-262.6953125,-12.20703125
1770773156.8880775,,,24.90234375,-59.5703125,-524.4140625,15.13671875
1770773156.891936,,,33.203125,-60.05859375,-131.8359375,-0.9765625
1770773156.895671,,,16.6015625,-54.6875,14.6484375,-14.6484375
1770773156.899406,,,3.41796875,-53.22265625,-236.81640625,-4.8828125
1770773156.9031408,,,5.37109375,-51.26953125,-307.12890625,-1.46484375
1770773156.9068756,,,13.671875,-51.26953125,-89.35546875,-10.25390625
1770773156.9106107,,,15.13671875,-50.29296875,-83.0078125,-12.6953125
1770773156.9143455,,,-10.7421875,-51.7578125,-599.12109375,-15.13671875
1770773156.9180803,,,-12.6953125,-54.19921875,-712.890625,-18.06640625
1770773156.9218154,,,-0.48828125,-54.19921875,-167.48046875,-16.6015625
1770773156.9255502,,,-7.32421875,-55.6640625,-190.4296875,-19.53125
1770773156.929285,,,-37.109375,-61.03515625,-746.58203125,-19.53125
1770773156.93302,,,-56.15234375,-58.10546875,-731.4453125,-27.83203125
1770773156.936755,,,-19.53125,-53.22265625,-119.62890625,-22.94921875
1770773156.9416094,,,-5.859375,-61.03515625,-171.38671875,-10.25390625
1770773156.9464638,,,-38.0859375,-63.4765625,-430.6640625,-25.87890625
1770773156.9513183,,,-52.24609375,-57.6171875,-331.54296875,-35.15625
1770773156.9561727,,,-39.55078125,-62.5,-152.83203125,-26.85546875
1770773156.9610271,,,-19.04296875,-65.91796875,-211.9140625,-1.953125
