timestamp,marker_code,marker_label,EEG_0,EEG_1,EEG_2,EEG_3
1770774897.5188594,,,-43.9453125,-387.20703125,-381.8359375,-11.71875
1770774897.5213978,,,-54.6875,-437.98828125,-427.24609375,-31.73828125
1770774897.5239363,,,-58.10546875,-389.6484375,-357.91015625,-38.0859375
1770774897.5264747,,,-40.52734375,-666.015625,-618.65234375,-23.92578125
1770774897.5290132,,,-31.25,-855.95703125,-833.984375,-27.83203125
1770774897.5315514,,,-36.1328125,-787.59765625,-680.17578125,-41.9921875
1770774897.5340898,,,-45.41015625,-852.5390625,-693.84765625,-38.0859375
1770774897.5366282,,,-34.1796875,-513.671875,-444.3359375,-21.97265625
1770774897.5391667,,,-9.27734375,-333.49609375,-315.91796875,-10.7421875
1770774897.5417051,,,-21.97265625,-355.95703125,-353.02734375,-25.87890625
1770774897.5442436,,,-44.43359375,-287.59765625,-280.76171875,-39.55078125
1770774897.546782,,,-41.9921875,-699.70703125,-677.24609375,-12.6953125
1770774897.5517807,,,-37.59765625,-858.88671875,-862.3046875,6.8359375
1770774897.5567791,,,-50.29296875,-354.00390625,-361.81640625,-20.5078125
1770774897.5617778,,,-47.8515625,-298.828125,-296.875,-36.62109375
1770774897.5667763,,,-14.6484375,-311.03515625,-302.24609375,-4.8828125
1770774897.571775,,,-32.2265625,-309.08203125,-300.78125,-15.625
1770774897.5767734,,,-73.73046875,-671.38671875,-571.2890625,-49.31640625
1770774897.581772,,,-74.70703125,-883.7890625,-682.12890625,-68.359375
1770774897.5867708,,,-78.125,-982.421875,-905.2734375,-73.2421875
1770774897.5917692,,,-95.21484375,-803.7109375,-808.10546875,-79.58984375
1770774897.596768,,,-99.12109375,-307.6171875,-261.23046875,-102.5390625
1770774897.6017663,,,-103.515625,-181.640625,-135.25390625,-114.74609375
1770774897.606765,,,-107.421875,-225.5859375,-187.98828125,-127.9296875
1770774897.6141067,,,-112.3046875,-258.7890625,-206.0546875,-124.51171875
1770774897.6214483,,,-115.72265625,-190.91796875,-132.8125,-111.81640625
1770774897.6287897,,,-107.91015625,-549.31640625,-391.11328125,-113.76953125
1770774897.6361313,,,-105.95703125,-680.17578125,-472.65625,-111.328125
1770774897.643473,,,-103.515625,-341.30859375,-187.98828125,-93.26171875
1770774897.6508145,,,-97.16796875,-570.80078125,-327.63671875,-88.8671875
1770774897.6581562,,,-104.98046875,-709.47265625,-428.22265625,-102.5390625
1770774897.6654978,,,-104.00390625,-443.359375,-253.41796875,-108.88671875
1770774897.6728392,,,-90.8203125,-259.765625,-140.13671875,-95.21484375
1770774897.6801808,,,-78.61328125,-249.51171875,-82.03125,-80.078125
1770774897.6875224,,,-74.70703125,-680.6640625,-562.5,-62.01171875
1770774897.694864,,,-78.125,-939.453125,-925.78125,-64.94140625
1770774897.6951485,,,-62.98828125,-420.41015625,-347.65625,-72.75390625
1770774897.6954331,,,-55.17578125,-163.0859375,-66.40625,-64.453125
1770774897.6957176,,,-58.10546875,-218.26171875,-133.30078125,-77.1484375
1770774897.696002,,,-65.4296875,-259.765625,-193.84765625,-93.26171875
1770774897.6962864,,,-61.5234375,-272.94921875,-223.6328125,-89.35546875
1770774897.6965709,,,-24.90234375,-614.74609375,-472.16796875,-59.5703125
1770774897.6968555,,,-3.41796875,-755.37109375,-666.015625,-34.66796875
1770774897.69714,,,-23.4375,-356.93359375,-391.11328125,-52.734375
1770774897.6974244,,,-32.71484375,-215.8203125,-236.81640625,-74.70703125
1770774897.697709,,,-12.20703125,-199.21875,-229.4921875,-49.8046875
1770774897.6979935,,,1.46484375,-251.953125,-252.9296875,-26.3671875
1770774897.698278,,,7.8125,-457.51953125,-405.2734375,-22.94921875
1770774897.7018998,,,18.5546875,-300.29296875,-301.26953125,-27.34375
1770774897.7055216,,,23.4375,-524.4140625,-506.34765625,-19.53125
1770774897.7091434,,,24.90234375,-945.80078125,-921.38671875,-7.32421875
1770774897.7127652,,,40.52734375,-436.5234375,-502.9296875,-4.39453125
1770774897.716387,,,41.9921875,-173.33984375,-270.99609375,-1.46484375
1770774897.720009,,,31.73828125,-542.96875,-566.40625,2.44140625
1770774897.723631,,,28.3203125,-640.625,-626.46484375,13.671875
1770774897.7272527,,,35.64453125,-354.4921875,-433.59375,32.71484375
1770774897.7308745,,,26.85546875,-115.234375,-293.9453125,19.04296875
1770774897.7344964,,,15.13671875,-529.296875,-627.9296875,-1.953125
1770774897.7381182,,,19.53125,-1000.0,-1000.0,10.25390625
1770774897.74174,,,17.578125,-616.69921875,-744.140625,18.06640625
1770774897.74546,,,9.765625,-62.01171875,-349.12109375,-6.8359375
1770774897.74918,,,8.7890625,-19.53125,-339.84375,-34.66796875
1770774897.7529001,,,18.06640625,-42.96875,-370.60546875,-30.2734375
1770774897.7566204,,,20.01953125,-26.85546875,-378.41796875,-10.7421875
1770774897.7603405,,,5.859375,-163.57421875,-498.046875,-21.484375
1770774897.7640605,,,-11.71875,-593.26171875,-795.8984375,-40.52734375
1770774897.7677805,,,-15.625,-688.96484375,-864.2578125,-20.01953125
1770774897.7715006,,,-16.6015625,-405.76171875,-672.8515625,-4.8828125
1770774897.7752206,,,-15.13671875,-194.3359375,-529.296875,-15.625
1770774897.778941,,,-14.16015625,-806.640625,-902.34375,-34.66796875
1770774897.782661,,,-25.87890625,-725.09765625,-844.7265625,-48.33984375
1770774897.786381,,,-17.578125,114.2578125,-297.36328125,-36.1328125
1770774897.79019,,,-5.859375,-93.75,-432.12890625,-24.90234375
1770774897.793999,,,-21.484375,-325.1953125,-603.515625,-41.50390625
1770774897.797808,,,-31.73828125,-5.859375,-373.046875,-34.66796875
1770774897.801617,,,-23.92578125,88.8671875,-300.78125,-6.8359375
1770774897.805426,,,-6.34765625,-228.515625,-535.64453125,4.39453125
1770774897.809235,,,-9.27734375,-670.41015625,-862.79296875,-19.53125
1770774897.813044,,,-20.5078125,-451.171875,-708.49609375,-41.015625
1770774897.816853,,,-18.5546875,12.20703125,-405.76171875,-21.484375
1770774897.820662,,,-9.765625,-469.23828125,-695.80078125,6.34765625
1770774897.824471,,,-14.16015625,-922.8515625,-988.76953125,9.765625
1770774897.82828,,,-26.85546875,-218.75,-562.5,-15.625
1770774897.832089,,,-21.484375,115.234375,-342.7734375,-20.5078125
1770774897.835776,,,-15.625,-470.703125,-733.88671875,0.9765625
1770774897.8394632,,,-9.765625,-503.90625,-755.37109375,6.34765625
1770774897.8431504,,,-15.13671875,25.87890625,-413.0859375,-14.6484375
1770774897.8468375,,,-33.69140625,-49.8046875,-459.47265625,-20.5078125
1770774897.8505247,,,-35.64453125,-348.14453125,-654.78515625,-12.6953125
1770774897.854212,,,-25.87890625,-552.24609375,-773.92578125,-9.765625
1770774897.8578992,,,-26.3671875,-385.25390625,-621.58203125,-26.3671875
1770774897.8615863,,,-34.66796875,-183.10546875,-463.8671875,-35.64453125
1770774897.8652735,,,-29.296875,-717.28515625,-838.37890625,-6.34765625
1770774897.8689606,,,-16.6015625,-526.3671875,-706.0546875,6.34765625
1770774897.8726478,,,-14.6484375,76.171875,-263.671875,-0.9765625
1770774897.876335,,,-15.625,-223.6328125,-490.72265625,-5.37109375
1770774897.8801336,,,-10.7421875,-581.54296875,-749.51171875,-5.37109375
1770774897.8839326,,,-12.20703125,-413.0859375,-600.09765625,-0.9765625
1770774897.8877316,,,-17.08984375,-9.27734375,-290.0390625,-2.44140625
1770774897.8915303,,,-23.92578125,-332.51953125,-520.99609375,-9.27734375
1770774897.895329,,,-25.390625,-722.65625,-815.4296875,-2.9296875
1770774897.899128,,,-31.25,-512.20703125,-653.80859375,10.7421875
1770774897.902927,,,-26.3671875,-481.4453125,-607.421875,16.6015625
1770774897.9067256,,,-33.203125,-769.04296875,-820.80078125,3.90625
1770774897.9105244,,,-20.5078125,-776.3671875,-844.7265625,-0.9765625
1770774897.9143233,,,1.953125,-122.0703125,-369.140625,7.32421875
1770774897.9181223,,,-27.83203125,3.90625,-277.83203125,-11.23046875
1770774897.921921,,,-57.6171875,-291.015625,-491.69921875,-35.15625
1770774897.9255972,,,-64.94140625,-269.04296875,-480.95703125,-45.41015625
1770774897.9292734,,,-63.96484375,-1.46484375,-285.15625,-43.9453125
1770774897.9329495,,,-52.24609375,-76.171875,-307.12890625,-31.73828125
1770774897.9366257,,,-41.9921875,-350.09765625,-512.20703125,-36.62109375
1770774897.940302,,,-57.6171875,-465.8203125,-614.74609375,-54.19921875
1770774897.9439778,,,-70.3125,-623.046875,-705.078125,-42.96875
1770774897.947654,,,-60.05859375,-603.515625,-665.0390625,-20.5078125
1770774897.9513302,,,-58.10546875,-865.72265625,-878.90625,-0.48828125
1770774897.9550064,,,-65.4296875,-773.92578125,-837.890625,-13.671875
1770774897.9586825,,,-54.19921875,-63.96484375,-293.9453125,-25.87890625
1770774897.9623587,,,-35.15625,-176.26953125,-357.421875,-11.23046875
1770774897.966035,,,-33.69140625,-342.28515625,-460.9375,-15.13671875
1770774897.9699013,,,-44.43359375,-24.4140625,-235.3515625,-24.90234375
1770774897.9737678,,,-41.015625,53.22265625,-198.73046875,-24.4140625
1770774897.9776342,,,-27.34375,-312.5,-465.8203125,-19.53125
1770774897.9815006,,,-25.390625,-405.2734375,-535.15625,-10.7421875
1770774897.985367,,,-35.15625,-93.75,-298.828125,-17.08984375
1770774897.9892335,,,-35.64453125,-363.28125,-454.58984375,-27.83203125
1770774897.9931,,,-33.69140625,-801.7578125,-788.57421875,-10.25390625
1770774897.9969664,,,-35.64453125,-780.76171875,-824.70703125,0.0
1770774898.0008328,,,-40.52734375,-412.59765625,-527.83203125,-11.23046875
1770774898.0046992,,,-59.5703125,-53.7109375,-262.20703125,-25.390625
1770774898.0085657,,,-50.29296875,-430.17578125,-578.125,-14.6484375
1770774898.012432,,,-41.015625,-541.9921875,-687.98828125,-12.20703125
1770774898.0172338,,,-47.36328125,74.70703125,-226.07421875,-26.3671875
1770774898.0220354,,,-49.31640625,-7.32421875,-294.43359375,-31.73828125
1770774898.026837,,,-47.8515625,-285.15625,-498.046875,-33.203125
1770774898.0316386,,,-39.0625,-173.828125,-418.9453125,-31.25
1770774898.0364404,,,-29.78515625,0.48828125,-294.43359375,-38.0859375
1770774898.041242,,,-46.875,-381.8359375,-561.5234375,-56.15234375
1770774898.0460436,,,-66.89453125,-896.97265625,-938.96484375,-51.7578125
1770774898.0508454,,,-54.6875,-550.78125,-697.75390625,-39.55078125
1770774898.055647,,,-33.203125,56.15234375,-250.48828125,-20.99609375
1770774898.0604486,,,-28.80859375,-165.0390625,-409.66796875,-29.78515625
1770774898.0652502,,,-30.76171875,-361.81640625,-563.96484375,-57.6171875
1770774898.070052,,,-40.52734375,-345.703125,-548.828125,-34.66796875
1770774898.075069,,,-41.015625,-308.59375,-508.30078125,-7.32421875
1770774898.080086,,,-41.50390625,-395.01953125,-561.5234375,-13.671875
1770774898.0851033,,,-59.08203125,-697.75390625,-809.08203125,-49.31640625
1770774898.0901203,,,-56.640625,-247.0703125,-506.34765625,-58.59375
1770774898.0951374,,,-40.52734375,2.44140625,-326.171875,-41.015625
1770774898.1001544,,,-34.66796875,-564.453125,-716.796875,-29.296875
1770774898.1051714,,,-40.52734375,-794.921875,-892.08984375,-58.59375
1770774898.1101885,,,-38.0859375,-222.65625,-531.25,-70.3125
1770774898.1152058,,,-32.71484375,-30.2734375,-392.08984375,-38.57421875
1770774898.1202228,,,-29.296875,-523.4375,-715.8203125,-22.4609375
1770774898.1252398,,,-40.0390625,-686.03515625,-841.796875,-27.83203125
1770774898.130257,,,-46.875,-262.6953125,-582.51953125,-37.59765625
1770774898.1333177,,,-20.01953125,-167.48046875,-508.7890625,-19.53125
1770774898.1363788,,,-21.97265625,-328.61328125,-616.2109375,-8.7890625
1770774898.1394396,,,-51.26953125,-316.89453125,-617.67578125,-22.4609375
1770774898.1425006,,,-39.55078125,-408.203125,-694.3359375,-26.3671875
1770774898.1455615,,,-7.32421875,-352.05078125,-668.9453125,-3.41796875
1770774898.1486223,,,10.25390625,-691.89453125,-842.28515625,22.94921875
1770774898.1516833,,,3.90625,-748.53515625,-898.92578125,16.6015625
1770774898.1547441,,,0.48828125,-57.12890625,-510.7421875,0.9765625
1770774898.1578052,,,10.7421875,-174.8046875,-591.30859375,12.20703125
1770774898.160866,,,4.39453125,-513.671875,-780.76171875,24.90234375
1770774898.163927,,,-2.9296875,-214.35546875,-581.54296875,36.1328125
1770774898.166988,,,-5.37109375,108.3984375,-394.53125,23.92578125
1770774898.1702263,,,-12.6953125,-279.78515625,-635.25390625,7.8125
1770774898.1734648,,,-17.578125,-650.87890625,-840.8203125,18.06640625
1770774898.1767032,,,-10.7421875,-194.3359375,-567.87109375,17.08984375
1770774898.1799417,,,-18.06640625,-5.859375,-474.12109375,-6.8359375
1770774898.18318,,,-37.109375,-386.71875,-722.65625,-14.6484375
1770774898.1864183,,,-32.71484375,-781.25,-974.609375,5.37109375
1770774898.1896567,,,-23.4375,-722.16796875,-922.36328125,19.53125
1770774898.1928952,,,-13.671875,-407.71484375,-720.21484375,7.32421875
1770774898.1961336,,,-17.08984375,-562.01171875,-769.04296875,-0.9765625
1770774898.199372,,,-34.66796875,-970.21484375,-1000.0,-0.48828125
1770774898.2026105,,,-26.85546875,-391.6015625,-684.08203125,-7.8125
1770774898.205849,,,-18.5546875,-55.6640625,-455.56640625,-7.32421875
1770774898.2095997,,,-24.4140625,-325.68359375,-649.4140625,-22.4609375
1770774898.2133505,,,-31.25,-258.30078125,-598.6328125,-26.85546875
1770774898.2171013,,,-26.3671875,5.859375,-384.765625,1.953125
1770774898.220852,,,-16.11328125,-102.5390625,-452.1484375,16.11328125
1770774898.2246027,,,-20.99609375,-422.8515625,-689.94140625,-2.9296875
1770774898.2283535,,,-28.80859375,-633.30078125,-823.73046875,-9.27734375
1770774898.2321043,,,-20.99609375,-604.00390625,-774.90234375,-8.7890625
1770774898.235855,,,-14.6484375,-375.0,-576.171875,-4.39453125
1770774898.239606,,,-30.76171875,-748.046875,-837.890625,-8.30078125
1770774898.2433565,,,-37.109375,-649.4140625,-797.8515625,-35.15625
1770774898.2471073,,,-36.1328125,-362.3046875,-571.2890625,-42.96875
1770774898.250858,,,-41.9921875,-684.5703125,-770.99609375,-20.99609375
1770774898.2546124,,,-36.1328125,-687.98828125,-783.203125,-18.5546875
1770774898.2583668,,,-38.57421875,-228.02734375,-475.5859375,-46.38671875
1770774898.2621212,,,-38.57421875,-21.97265625,-310.546875,-45.8984375
1770774898.2658758,,,-34.1796875,-352.5390625,-548.828125,-19.53125
1770774898.2696302,,,-29.296875,-480.95703125,-642.578125,-9.27734375
1770774898.2733846,,,-29.78515625,-551.7578125,-683.59375,-30.2734375
1770774898.277139,,,-25.87890625,-480.46875,-642.578125,-42.96875
1770774898.2808933,,,-14.16015625,-597.65625,-723.14453125,-31.73828125
1770774898.2846477,,,-31.73828125,-790.52734375,-858.3984375,-32.2265625
1770774898.2884023,,,-52.734375,-187.01171875,-441.89453125,-58.59375
1770774898.2921567,,,-54.19921875,-92.28515625,-378.41796875,-64.453125
1770774898.295911,,,-46.875,-413.0859375,-595.21484375,-61.03515625
1770774898.2997317,,,-41.015625,-308.59375,-513.671875,-59.5703125
1770774898.3035524,,,-46.875,-199.70703125,-426.26953125,-59.5703125
1770774898.307373,,,-48.33984375,-521.484375,-637.6953125,-62.5
1770774898.3111937,,,-35.64453125,-695.80078125,-788.0859375,-54.6875
1770774898.3150144,,,-32.71484375,-447.265625,-613.28125,-46.875
1770774898.318835,,,-40.0390625,-487.3046875,-621.58203125,-40.52734375
1770774898.3226557,,,-42.48046875,-749.51171875,-826.66015625,-47.8515625
1770774898.3264763,,,-43.9453125,-895.01953125,-942.3828125,-48.828125
1770774898.330297,,,-28.80859375,-563.96484375,-708.49609375,-36.62109375
1770774898.3341177,,,-18.5546875,-2.44140625,-276.85546875,-23.4375
1770774898.3379383,,,-36.1328125,-255.859375,-457.51953125,-40.0390625
1770774898.341759,,,-43.9453125,-500.0,-649.4140625,-50.29296875
1770774898.3454154,,,-36.62109375,-225.09765625,-458.0078125,-26.85546875
1770774898.3490715,,,-27.83203125,-18.06640625,-298.828125,-17.578125
1770774898.352728,,,-29.296875,-362.3046875,-536.1328125,-51.7578125
1770774898.3563843,,,-43.45703125,-541.50390625,-671.38671875,-64.453125
1770774898.3600407,,,-28.3203125,-259.765625,-457.51953125,-38.0859375
1770774898.363697,,,-14.6484375,-515.625,-619.62890625,-34.1796875
1770774898.3673532,,,-36.62109375,-851.07421875,-860.83984375,-38.0859375
1770774898.3710096,,,-55.17578125,-968.75,-990.234375,-40.52734375
1770774898.374666,,,-46.875,-425.29296875,-600.5859375,-41.9921875
1770774898.3783221,,,-34.1796875,-50.78125,-300.78125,-25.87890625
1770774898.3819785,,,-38.57421875,-355.95703125,-524.90234375,-41.50390625
1770774898.385635,,,-46.38671875,-323.2421875,-521.484375,-76.171875
1770774898.3920035,,,-39.0625,-80.078125,-364.2578125,-77.1484375
1770774898.398372,,,-27.83203125,-170.8984375,-428.7109375,-50.29296875
1770774898.4047403,,,-30.76171875,-464.35546875,-640.13671875,-34.1796875
1770774898.411109,,,-47.8515625,-424.31640625,-618.1640625,-49.8046875
1770774898.4174776,,,-52.734375,-296.38671875,-520.01953125,-48.828125
1770774898.423846,,,-46.38671875,-579.1015625,-683.10546875,-34.66796875
1770774898.4302144,,,-43.45703125,-934.5703125,-938.4765625,-27.34375
1770774898.436583,,,-43.9453125,-634.27734375,-756.34765625,-32.2265625
1770774898.4429517,,,-47.8515625,-151.85546875,-385.25390625,-45.41015625
1770774898.44932,,,-49.8046875,-506.8359375,-620.1171875,-35.15625
1770774898.4556885,,,-48.828125,-703.61328125,-783.203125,-24.90234375
1770774898.462057,,,-39.0625,-264.16015625,-480.46875,-47.36328125
1770774898.4644437,,,-44.43359375,-12.6953125,-294.921875,-61.5234375
1770774898.46683,,,-55.17578125,-358.3984375,-570.80078125,-53.22265625
1770774898.4692166,,,-48.33984375,-492.1875,-686.03515625,-44.43359375
1770774898.4716032,,,-49.31640625,-90.33203125,-397.94921875,-41.50390625
1770774898.4739895,,,-50.78125,-74.21875,-409.1796875,-42.96875
1770774898.476376,,,-40.0390625,-643.5546875,-790.0390625,-14.16015625
1770774898.4787626,,,-39.55078125,-850.5859375,-906.73828125,6.34765625
1770774898.481149,,,-33.69140625,-319.3359375,-530.2734375,-14.16015625
1770774898.4835355,,,-41.50390625,-187.01171875,-399.90234375,-32.71484375
1770774898.485922,,,-47.36328125,-633.7890625,-728.02734375,-31.73828125
1770774898.4883084,,,-40.52734375,-669.43359375,-723.6328125,-21.97265625
1770774898.490695,,,-42.96875,-273.92578125,-365.234375,-13.671875
1770774898.4944832,,,-53.22265625,-430.17578125,-418.9453125,-20.5078125
1770774898.4982715,,,-64.453125,-878.90625,-818.84765625,-37.109375
1770774898.5020597,,,-59.08203125,-675.29296875,-689.94140625,-31.25
1770774898.505848,,,-50.78125,-150.390625,-182.6171875,-28.3203125
1770774898.5096362,,,-48.33984375,-257.8125,-258.30078125,-46.875
1770774898.5134246,,,-57.12890625,-754.39453125,-639.6484375,-61.5234375
1770774898.5172129,,,-58.10546875,-655.76171875,-570.80078125,-65.4296875
1770774898.521001,,,-50.29296875,-69.82421875,-161.62109375,-51.26953125
1770774898.5247893,,,-45.8984375,-39.0625,-147.4609375,-54.19921875
1770774898.5285776,,,-49.8046875,-643.5546875,-663.57421875,-83.49609375
1770774898.5323658,,,-48.33984375,-473.14453125,-570.3125,-83.0078125
1770774898.536154,,,-39.0625,82.51953125,-91.796875,-62.98828125
1770774898.5410728,,,-33.203125,-124.51171875,-249.51171875,-62.01171875
1770774898.5459914,,,-53.7109375,-354.00390625,-436.03515625,-90.33203125
1770774898.5509102,,,-70.3125,-98.14453125,-274.4140625,-107.421875
1770774898.555829,,,-55.17578125,-51.7578125,-238.28125,-92.7734375
1770774898.5607479,,,-41.50390625,-548.828125,-615.72265625,-72.265625
1770774898.5656667,,,-55.17578125,-984.375,-986.328125,-82.03125
1770774898.5705853,,,-66.40625,-633.30078125,-713.37890625,-91.796875
1770774898.575504,,,-75.1953125,-195.80078125,-356.93359375,-75.68359375
1770774898.5804229,,,-66.40625,-610.3515625,-687.01171875,-51.7578125
1770774898.5853415,,,-59.5703125,-899.90234375,-911.1328125,-50.29296875
1770774898.5902603,,,-74.21875,-422.36328125,-487.79296875,-74.70703125
1770774898.595179,,,-64.453125,-316.40625,-382.8125,-64.94140625
1770774898.5977378,,,-51.26953125,-555.17578125,-580.078125,-56.15234375
1770774898.6002967,,,-42.48046875,-529.296875,-592.28515625,-61.5234375
1770774898.6028557,,,-44.921875,-341.30859375,-492.1875,-78.125
1770774898.6054144,,,-53.22265625,-442.87109375,-583.49609375,-81.0546875
1770774898.607973,,,-48.33984375,-719.7265625,-794.43359375,-72.265625
1770774898.610532,,,-39.55078125,-920.41015625,-954.58984375,-59.5703125
1770774898.613091,,,-48.33984375,-821.77734375,-890.13671875,-74.21875
1770774898.6156497,,,-57.12890625,-661.62109375,-766.6015625,-84.47265625
1770774898.6182084,,,-52.734375,-879.8828125,-930.6640625,-66.40625
1770774898.6207674,,,-50.78125,-635.25390625,-765.13671875,-68.84765625
1770774898.6233263,,,-38.57421875,-250.48828125,-495.60546875,-93.26171875
1770774898.625885,,,-43.45703125,-526.3671875,-698.73046875,-104.00390625
1770774898.632076,,,-33.69140625,-847.65625,-927.734375,-92.7734375
1770774898.638267,,,-30.76171875,-467.7734375,-661.1328125,-83.0078125
1770774898.644458,,,-34.1796875,-209.9609375,-472.16796875,-84.47265625
1770774898.650649,,,-24.4140625,-590.8203125,-754.39453125,-113.28125
1770774898.65684,,,-28.80859375,-715.8203125,-836.42578125,-117.67578125
1770774898.663031,,,-16.6015625,-592.7734375,-735.83984375,-78.125
1770774898.6692219,,,-19.53125,-664.55078125,-767.578125,-58.10546875
1770774898.675413,,,-37.59765625,-839.35546875,-874.0234375,-82.51953125
1770774898.681604,,,-54.6875,-847.16796875,-896.484375,-104.4921875
1770774898.687795,,,-62.98828125,-322.265625,-498.53515625,-106.4453125
1770774898.693986,,,-50.78125,-163.57421875,-339.84375,-91.30859375
1770774898.700177,,,-61.5234375,-621.58203125,-697.265625,-100.09765625
1770774898.701509,,,-71.2890625,-560.05859375,-650.390625,-136.71875
1770774898.702841,,,-68.359375,-117.67578125,-310.05859375,-152.83203125
1770774898.7041728,,,-64.94140625,-187.5,-358.88671875,-142.08984375
1770774898.705505,,,-65.91796875,-535.15625,-626.46484375,-154.78515625
1770774898.706837,,,-70.3125,-478.02734375,-621.09375,-168.45703125
1770774898.708169,,,-65.91796875,-400.87890625,-555.17578125,-145.99609375
1770774898.709501,,,-57.6171875,-608.88671875,-687.5,-114.2578125
1770774898.710833,,,-50.78125,-599.609375,-711.9140625,-101.5625
1770774898.7121649,,,-51.7578125,-276.3671875,-489.2578125,-112.79296875
1770774898.713497,,,-46.38671875,77.63671875,-204.1015625,-111.328125
1770774898.714829,,,-27.34375,-80.56640625,-309.08203125,-81.54296875
1770774898.716161,,,-19.04296875,-400.390625,-536.1328125,-73.73046875
1770774898.7199783,,,-29.296875,-82.51953125,-291.50390625,-86.9140625
1770774898.7237954,,,-34.66796875,285.64453125,0.9765625,-78.125
1770774898.7276127,,,-34.66796875,-57.6171875,-224.12109375,-38.0859375
1770774898.73143,,,-38.0859375,-802.734375,-832.03125,-17.08984375
1770774898.7352471,,,-48.828125,-231.4453125,-435.05859375,-28.80859375
1770774898.7390645,,,-46.38671875,190.4296875,-66.40625,-22.4609375
1770774898.7428818,,,-26.3671875,-454.1015625,-531.73828125,2.9296875
1770774898.7466989,,,-15.13671875,-604.4921875,-672.8515625,-3.41796875
1770774898.7505162,,,-26.85546875,257.32421875,-31.73828125,-31.73828125
1770774898.7543335,,,-32.71484375,533.69140625,199.70703125,-41.9921875
1770774898.7581506,,,-23.92578125,226.5625,-8.7890625,-33.203125
1770774898.761968,,,-14.6484375,276.85546875,51.26953125,-12.20703125
1770774898.7667444,,,-13.671875,500.9765625,211.42578125,-10.25390625
1770774898.7715206,,,-25.87890625,431.15234375,157.71484375,-29.296875
1770774898.776297,,,-26.3671875,147.4609375,-52.734375,-38.0859375
1770774898.7810736,,,-20.5078125,227.5390625,5.37109375,-22.4609375
1770774898.78585,,,-27.34375,372.55859375,125.0,-17.08984375
1770774898.7906265,,,-41.50390625,69.3359375,-65.4296875,-42.48046875
1770774898.7954028,,,-41.015625,-675.78125,-683.10546875,-46.875
1770774898.8001792,,,-29.296875,-627.44140625,-702.1484375,-34.1796875
1770774898.8049557,,,-24.4140625,388.18359375,143.5546875,-23.4375
1770774898.809732,,,-25.87890625,312.98828125,112.3046875,-12.20703125
1770774898.8145084,,,-25.87890625,-165.52734375,-269.04296875,-18.06640625
1770774898.819285,,,-21.484375,125.0,-53.7109375,-13.671875
1770774898.823079,,,-31.73828125,388.671875,153.80859375,1.46484375
1770774898.826873,,,-33.69140625,-32.71484375,-138.671875,12.20703125
1770774898.8306673,,,-40.0390625,-318.359375,-336.9140625,-10.25390625
1770774898.8344612,,,-46.875,52.734375,-66.89453125,-21.484375
1770774898.8382554,,,-41.50390625,133.30078125,20.5078125,0.48828125
1770774898.8420496,,,-47.36328125,-511.23046875,-509.27734375,6.8359375
1770774898.8458436,,,-52.24609375,-766.6015625,-792.48046875,-8.30078125
1770774898.8496377,,,-43.45703125,-107.421875,-244.62890625,-16.6015625
1770774898.8534317,,,-39.55078125,117.67578125,-37.59765625,9.765625
1770774898.857226,,,-43.9453125,-394.53125,-434.08203125,14.16015625
1770774898.8610198,,,-53.22265625,-717.28515625,-668.9453125,4.39453125
1770774898.864814,,,-54.19921875,-251.46484375,-324.21875,13.671875
1770774898.8686562,,,-41.50390625,-96.6796875,-185.05859375,32.2265625
1770774898.8724983,,,-28.3203125,-589.35546875,-605.46875,46.38671875
1770774898.8763404,,,-46.875,-585.9375,-603.515625,21.484375
1770774898.8801827,,,-64.453125,-136.23046875,-175.29296875,4.8828125
1770774898.8840249,,,-47.8515625,-209.47265625,-217.28515625,15.13671875
1770774898.887867,,,-43.45703125,-730.95703125,-566.40625,25.390625
1770774898.891709,,,-50.78125,-760.7421875,-559.5703125,25.87890625
1770774898.8955512,,,-48.33984375,-273.4375,-196.2890625,8.30078125
1770774898.8993933,,,-34.66796875,-328.125,-228.02734375,13.671875
1770774898.9032357,,,-32.2265625,-750.48828125,-668.9453125,30.2734375
1770774898.9070778,,,-41.015625,-506.34765625,-523.92578125,28.80859375
1770774898.91092,,,-41.9921875,-187.01171875,-214.84375,18.5546875
1770774898.9147377,,,-41.50390625,-608.3984375,-562.01171875,11.71875
1770774898.9185557,,,-45.8984375,-875.9765625,-743.1640625,26.3671875
1770774898.9223738,,,-44.921875,-567.87109375,-502.9296875,38.57421875
1770774898.9261916,,,-42.96875,-187.01171875,-226.5625,14.6484375
1770774898.9300094,,,-40.52734375,-456.0546875,-470.703125,-0.48828125
1770774898.9338274,,,-38.0859375,-959.9609375,-910.64453125,11.71875
1770774898.9376454,,,-36.1328125,-632.8125,-613.28125,28.3203125
1770774898.9414632,,,-42.96875,-102.05078125,-191.89453125,18.06640625
1770774898.945281,,,-55.17578125,-538.0859375,-576.66015625,14.16015625
1770774898.949099,,,-62.5,-831.0546875,-853.515625,20.01953125
1770774898.952917,,,-47.36328125,-308.10546875,-412.59765625,17.578125
1770774898.956735,,,-36.1328125,-306.640625,-380.859375,22.94921875
1770774898.960456,,,-47.36328125,-520.01953125,-553.7109375,-3.90625
1770774898.964177,,,-42.96875,-428.7109375,-497.55859375,-10.25390625
1770774898.967898,,,-35.15625,-207.03125,-332.03125,17.08984375
1770774898.971619,,,-33.69140625,-304.6875,-414.0625,10.7421875
1770774898.97534,,,-40.52734375,-576.66015625,-625.0,-13.671875
1770774898.979061,,,-42.96875,-742.1875,-757.32421875,-12.20703125
1770774898.982782,,,-33.203125,-773.4375,-779.296875,-0.48828125
1770774898.986503,,,-29.296875,-751.46484375,-742.67578125,3.41796875
1770774898.990224,,,-45.8984375,-939.94140625,-918.9453125,-11.23046875
1770774898.993945,,,-53.7109375,-797.8515625,-849.12109375,-36.62109375
1770774898.997666,,,-35.15625,-151.3671875,-330.56640625,-21.97265625
1770774899.001387,,,-20.01953125,-243.1640625,-375.48828125,-2.44140625
1770774899.0062335,,,-22.94921875,-439.453125,-522.94921875,-25.390625
1770774899.0110803,,,-36.62109375,-193.84765625,-367.1875,-45.8984375
1770774899.0159268,,,-41.9921875,-125.48828125,-308.10546875,-30.2734375
1770774899.0207736,,,-35.15625,-402.34375,-487.79296875,-14.16015625
1770774899.0256202,,,-30.2734375,-530.76171875,-564.94140625,-20.99609375
1770774899.030467,,,-41.50390625,-592.7734375,-594.7265625,-33.69140625
1770774899.0353136,,,-45.8984375,-486.81640625,-511.23046875,-45.41015625
1770774899.0401602,,,-35.64453125,-542.48046875,-599.609375,-44.43359375
1770774899.045007,,,-42.48046875,-941.40625,-936.5234375,-34.66796875
1770774899.0498536,,,-60.05859375,-552.24609375,-610.83984375,-59.08203125
1770774899.0547004,,,-47.8515625,-135.7421875,-285.64453125,-62.01171875
1770774899.059547,,,-31.73828125,-557.12890625,-639.16015625,-33.69140625
1770774899.0622048,,,-33.69140625,-626.46484375,-700.1953125,-19.04296875
1770774899.0648627,,,-30.2734375,-79.1015625,-220.703125,-27.83203125
1770774899.0675206,,,-36.62109375,-96.19140625,-211.9140625,-37.109375
1770774899.0701787,,,-35.15625,-455.078125,-486.81640625,-19.04296875
1770774899.0728366,,,-23.4375,-390.13671875,-447.265625,-1.46484375
1770774899.0754945,,,-30.76171875,-433.59375,-460.44921875,-10.25390625
1770774899.0781524,,,-37.109375,-638.671875,-579.58984375,-24.4140625
1770774899.0808103,,,-28.3203125,-831.54296875,-809.08203125,-8.30078125
1770774899.0834682,,,-27.83203125,-557.12890625,-632.32421875,-3.90625
1770774899.0861263,,,-25.390625,83.984375,-54.19921875,-12.20703125
1770774899.0887842,,,-34.66796875,-143.06640625,-205.56640625,-19.04296875
1770774899.091442,,,-44.921875,-394.04296875,-389.6484375,-17.578125
1770774899.0952303,,,-39.55078125,-382.32421875,-367.67578125,-6.8359375
1770774899.0990186,,,-28.3203125,-107.91015625,-144.53125,-8.30078125
1770774899.1028068,,,-29.78515625,-227.5390625,-234.375,-12.6953125
1770774899.106595,,,-28.3203125,-570.80078125,-510.25390625,-16.11328125
1770774899.1103833,,,-20.5078125,-97.16796875,-161.62109375,-12.20703125
1770774899.1141715,,,-24.90234375,-180.17578125,-185.05859375,-5.859375
1770774899.1179597,,,-28.80859375,-675.78125,-587.40234375,-21.97265625
1770774899.121748,,,-38.57421875,-763.18359375,-772.4609375,-39.0625
1770774899.1255362,,,-26.3671875,-97.65625,-212.40234375,-26.3671875
1770774899.1293244,,,-10.7421875,153.3203125,46.875,-3.41796875
1770774899.1331127,,,-24.4140625,-166.015625,-191.89453125,-3.41796875
1770774899.136901,,,-33.203125,-172.8515625,-209.9609375,-11.71875
1770774899.141717,,,-27.34375,112.79296875,-6.8359375,-4.8828125
1770774899.146533,,,-17.08984375,100.5859375,5.37109375,11.23046875
1770774899.1513493,,,-14.16015625,-131.34765625,-159.1796875,20.01953125
1770774899.1561654,,,-32.2265625,-275.87890625,-292.96875,5.37109375
1770774899.1609814,,,-30.2734375,-310.05859375,-330.078125,8.30078125
1770774899.1657975,,,-10.7421875,-321.77734375,-300.29296875,19.04296875
1770774899.1706135,,,-8.7890625,-786.1328125,-736.328125,1.953125
1770774899.1754296,,,-26.85546875,-767.08984375,-812.01171875,-37.59765625
1770774899.1802459,,,-30.76171875,38.0859375,-135.7421875,-51.7578125
1770774899.185062,,,-26.85546875,12.20703125,-133.7890625,-26.85546875
1770774899.189878,,,-23.92578125,-246.09375,-332.51953125,-2.9296875
1770774899.194694,,,-24.4140625,27.34375,-134.765625,-4.39453125
1770774899.198547,,,-26.85546875,211.42578125,-7.32421875,-24.4140625
1770774899.2023997,,,-17.578125,-127.9296875,-255.37109375,-21.97265625
1770774899.2062528,,,-21.484375,-340.8203125,-419.43359375,-10.7421875
1770774899.2101057,,,-25.87890625,32.71484375,-160.64453125,-24.90234375
1770774899.2139585,,,-31.73828125,87.890625,-105.95703125,-45.41015625
1770774899.2178116,,,-42.48046875,-564.453125,-602.05078125,-30.76171875
1770774899.2216644,,,-36.62109375,-745.60546875,-785.64453125,-14.16015625
1770774899.2255173,,,-24.90234375,-390.625,-493.1640625,-19.53125
1770774899.22937,,,-39.0625,-219.7265625,-330.078125,-32.71484375
1770774899.233223,,,-55.17578125,-516.6015625,-579.58984375,-30.2734375
1770774899.237076,,,-43.45703125,-688.96484375,-738.76953125,-19.04296875
1770774899.240929,,,-37.109375,-17.08984375,-177.734375,-13.671875
1770774899.2446785,,,-46.875,-36.62109375,-202.1484375,-15.13671875
1770774899.2484279,,,-58.10546875,-377.9296875,-483.88671875,-22.4609375
1770774899.2521775,,,-57.6171875,-288.0859375,-413.57421875,-5.859375
1770774899.2559268,,,-50.29296875,0.0,-204.1015625,3.90625
1770774899.2596765,,,-56.15234375,-141.11328125,-337.890625,-16.6015625
1770774899.263426,,,-53.22265625,-733.3984375,-828.61328125,-39.0625
1770774899.2671754,,,-48.828125,-714.35546875,-806.640625,-40.52734375
1770774899.270925,,,-44.43359375,-84.9609375,-324.21875,-31.25
1770774899.2746744,,,-33.203125,-56.640625,-299.8046875,-32.71484375
1770774899.278424,,,-36.1328125,-705.56640625,-796.38671875,-45.41015625
1770774899.2821734,,,-44.921875,-604.4921875,-750.0,-42.96875
1770774899.285923,,,-39.0625,-201.171875,-434.08203125,-17.578125
1770774899.2896695,,,-27.34375,-371.58203125,-538.57421875,-7.32421875
1770774899.2934158,,,-34.1796875,-591.30859375,-718.26171875,-29.78515625
1770774899.2971623,,,-47.8515625,-261.71875,-500.9765625,-39.0625
1770774899.3009086,,,-46.875,9.27734375,-278.80859375,-25.390625
1770774899.304655,,,-39.55078125,-277.83203125,-481.4453125,-24.90234375
1770774899.3084016,,,-34.1796875,-742.67578125,-820.3125,-41.015625
1770774899.3121479,,,-34.66796875,-573.73046875,-692.87109375,-56.640625
1770774899.3158944,,,-26.3671875,-78.61328125,-317.87109375,-46.875
1770774899.3196406,,,-36.1328125,-500.0,-621.58203125,-26.85546875
1770774899.3233871,,,-54.6875,-841.30859375,-877.44140625,-26.85546875
1770774899.3271334,,,-57.12890625,-252.44140625,-428.22265625,-45.41015625
1770774899.33088,,,-46.38671875,-71.2890625,-267.578125,-35.15625
1770774899.3346503,,,-29.78515625,-344.23828125,-462.40234375,-14.16015625
1770774899.3384206,,,-33.203125,-310.05859375,-458.49609375,-16.6015625
1770774899.342191,,,-37.109375,-290.52734375,-456.0546875,-39.55078125
1770774899.3459613,,,-32.2265625,-580.56640625,-644.04296875,-41.015625
1770774899.3497317,,,-35.64453125,-705.56640625,-759.765625,-3.90625
1770774899.3535018,,,-43.45703125,-774.90234375,-841.30859375,-4.39453125
1770774899.3572721,,,-52.24609375,-609.375,-687.98828125,-42.96875
1770774899.3610425,,,-46.875,-352.5390625,-505.37109375,-45.8984375
1770774899.3648129,,,-46.875,-735.3515625,-812.5,-12.6953125
1770774899.3685832,,,-40.0390625,-568.84765625,-704.58984375,-4.8828125
1770774899.3723536,,,-30.76171875,-48.33984375,-314.453125,-19.04296875
1770774899.376124,,,-39.55078125,-491.69921875,-630.859375,-33.203125
1770774899.3799052,,,-39.55078125,-672.36328125,-769.53125,-23.92578125
1770774899.3836865,,,-38.0859375,-247.0703125,-468.26171875,-4.39453125
1770774899.3874679,,,-33.203125,-65.91796875,-317.3828125,-10.7421875
1770774899.3912492,,,-35.64453125,-391.6015625,-553.22265625,-31.25
1770774899.3950305,,,-33.203125,-514.6484375,-640.625,-30.2734375
1770774899.398812,,,-27.34375,-451.171875,-572.75390625,-15.13671875
1770774899.4025934,,,-24.4140625,-644.53125,-708.984375,-13.18359375
1770774899.4063747,,,-25.87890625,-860.83984375,-882.32421875,-23.4375
1770774899.410156,,,-39.55078125,-969.7265625,-989.74609375,-14.6484375
1770774899.4139373,,,-55.6640625,-411.1328125,-568.84765625,4.39453125
1770774899.4177186,,,-49.8046875,-71.2890625,-277.83203125,10.25390625
1770774899.4215,,,-38.57421875,-397.4609375,-528.80859375,4.8828125
1770774899.4265263,,,-41.50390625,-364.74609375,-515.625,-19.53125
1770774899.4315526,,,-49.31640625,-100.09765625,-315.4296875,-26.3671875
1770774899.436579,,,-46.875,-159.1796875,-344.7265625,-10.25390625
1770774899.4416053,,,-52.24609375,-403.3203125,-514.6484375,-22.4609375
1770774899.4466317,,,-64.453125,-404.78515625,-513.671875,-33.203125
1770774899.451658,,,-64.453125,-551.7578125,-607.421875,-19.04296875
1770774899.4566844,,,-59.08203125,-658.203125,-658.203125,-9.27734375
1770774899.4617107,,,-60.05859375,-826.66015625,-826.66015625,-14.16015625
1770774899.466737,,,-68.84765625,-580.56640625,-678.7109375,-34.66796875
1770774899.4717634,,,-63.96484375,-127.9296875,-270.99609375,-33.69140625
1770774899.4767897,,,-50.29296875,-431.640625,-456.54296875,-6.34765625
1770774899.481816,,,-60.546875,-559.08203125,-576.66015625,-0.9765625
1770774899.4842918,,,-70.80078125,-192.87109375,-324.70703125,-23.4375
1770774899.4867678,,,-64.453125,60.05859375,-121.58203125,-36.1328125
1770774899.4892435,,,-68.84765625,-271.97265625,-359.86328125,-36.1328125
1770774899.4917195,,,-76.171875,-384.765625,-447.265625,-38.0859375
1770774899.4941952,,,-87.40234375,-112.3046875,-269.04296875,-64.94140625
1770774899.496671,,,-96.6796875,-428.22265625,-529.296875,-80.078125
1770774899.499147,,,-113.28125,-847.16796875,-861.81640625,-73.2421875
1770774899.5016227,,,-128.90625,-762.6953125,-821.77734375,-84.47265625
1770774899.5040987,,,-147.94921875,-176.26953125,-365.72265625,-120.1171875
1770774899.5065744,,,-155.2734375,79.58984375,-173.828125,-146.97265625
1770774899.5090504,,,-163.57421875,-473.6328125,-612.3046875,-136.23046875
1770774899.511526,,,-169.921875,-520.01953125,-668.45703125,-120.60546875
1770774899.5165555,,,-153.3203125,83.984375,-229.4921875,-116.69921875
1770774899.521585,,,-162.59765625,-178.7109375,-402.83203125,-124.51171875
1770774899.5266142,,,-168.45703125,-654.78515625,-752.44140625,-126.953125
1770774899.5316436,,,-149.4140625,-352.05078125,-512.20703125,-105.95703125
1770774899.536673,,,-137.20703125,70.3125,-171.38671875,-101.07421875
1770774899.5417025,,,-134.765625,-280.2734375,-414.55078125,-117.67578125
1770774899.546732,,,-127.9296875,-796.38671875,-820.80078125,-99.609375
1770774899.5517614,,,-105.46875,-484.375,-625.48828125,-71.2890625
1770774899.5567906,,,-84.47265625,229.98046875,-68.84765625,-56.15234375
1770774899.56182,,,-80.078125,103.02734375,-137.20703125,-56.15234375
1770774899.5668495,,,-71.77734375,-130.37109375,-291.015625,-64.453125
1770774899.571879,,,-56.640625,84.9609375,-124.0234375,-47.36328125
1770774899.5755,,,-34.66796875,293.9453125,51.26953125,-20.99609375
1770774899.5791209,,,-24.90234375,-29.296875,-167.48046875,-20.5078125
1770774899.582742,,,-32.2265625,-256.8359375,-326.171875,-43.9453125
1770774899.5863628,,,-19.53125,59.5703125,-115.72265625,-40.0390625
1770774899.589984,,,-18.06640625,-1.46484375,-136.23046875,-8.7890625
1770774899.593605,,,-31.25,-554.6875,-532.2265625,0.9765625
1770774899.597226,,,-50.78125,-941.40625,-895.01953125,-18.5546875
1770774899.600847,,,-54.6875,-469.23828125,-497.0703125,-42.48046875
1770774899.6044679,,,-41.50390625,142.578125,9.27734375,-43.45703125
1770774899.608089,,,-27.34375,-388.671875,-426.7578125,-32.71484375
1770774899.6117098,,,-20.5078125,-609.375,-631.8359375,-44.921875
1770774899.615331,,,-24.90234375,48.828125,-129.39453125,-48.33984375
1770774899.619176,,,-26.85546875,110.3515625,-76.171875,-27.83203125
1770774899.6230211,,,-26.85546875,-185.546875,-292.96875,-22.4609375
1770774899.6268663,,,-38.57421875,-199.21875,-315.4296875,-41.015625
1770774899.6307113,,,-35.15625,26.3671875,-170.41015625,-57.6171875
1770774899.6345563,,,-22.94921875,-9.27734375,-206.0546875,-47.36328125
1770774899.6384015,,,-20.5078125,-534.66796875,-591.796875,-31.73828125
1770774899.6422467,,,-30.76171875,-604.4921875,-652.83203125,-48.33984375
1770774899.6460917,,,-41.50390625,-110.3515625,-304.19921875,-67.87109375
1770774899.6499367,,,-28.80859375,-250.48828125,-387.20703125,-44.43359375
1770774899.653782,,,-27.34375,-875.9765625,-877.44140625,-22.94921875
1770774899.657627,,,-40.52734375,-682.6171875,-754.8828125,-41.50390625
1770774899.661472,,,-50.29296875,-16.11328125,-203.125,-62.98828125
1770774899.6652427,,,-44.921875,-264.6484375,-370.1171875,-53.7109375
1770774899.6690135,,,-50.29296875,-494.140625,-542.96875,-47.36328125
1770774899.672784,,,-56.15234375,-177.24609375,-321.77734375,-52.734375
1770774899.6765547,,,-76.66015625,-53.7109375,-244.140625,-84.47265625
1770774899.6803255,,,-101.5625,-363.76953125,-499.0234375,-122.55859375
1770774899.684096,,,-103.02734375,-859.375,-891.11328125,-125.9765625
1770774899.6878667,,,-104.4921875,-636.23046875,-738.28125,-120.1171875
1770774899.6916375,,,-106.93359375,-126.953125,-375.9765625,-128.90625
1770774899.695408,,,-119.62890625,-529.78515625,-662.109375,-127.44140625
1770774899.6991787,,,-118.1640625,-883.7890625,-925.29296875,-108.88671875
1770774899.7029495,,,-114.74609375,-310.05859375,-509.27734375,-109.375
1770774899.70672,,,-122.0703125,-164.55078125,-354.4921875,-121.58203125
1770774899.7104847,,,-120.60546875,-632.32421875,-709.47265625,-137.20703125
1770774899.7142494,,,-107.421875,-529.296875,-628.41796875,-141.11328125
1770774899.718014,,,-83.0078125,-114.2578125,-261.23046875,-113.28125
1770774899.7217786,,,-66.40625,-145.01953125,-268.06640625,-83.49609375
1770774899.7255433,,,-69.82421875,-575.1953125,-634.765625,-83.0078125
1770774899.7293081,,,-63.4765625,-815.4296875,-817.3828125,-88.8671875
1770774899.7330728,,,-53.22265625,-583.0078125,-592.28515625,-78.61328125
1770774899.7368374,,,-33.69140625,-334.9609375,-396.97265625,-56.640625
1770774899.740602,,,-24.90234375,-710.44921875,-732.421875,-50.78125
1770774899.7443666,,,-22.94921875,-674.8046875,-754.8828125,-56.15234375
1770774899.7481313,,,-4.39453125,-53.7109375,-243.65234375,-40.52734375
1770774899.751896,,,9.27734375,-265.13671875,-381.8359375,-11.23046875
1770774899.7556417,,,7.8125,-615.234375,-651.85546875,-15.13671875
1770774899.7593875,,,7.8125,-301.26953125,-415.0390625,-22.94921875
1770774899.7631333,,,18.06640625,-69.3359375,-201.66015625,-0.48828125
1770774899.7668788,,,28.80859375,-469.23828125,-510.25390625,21.97265625
1770774899.7706246,,,27.83203125,-724.12109375,-749.0234375,20.99609375
1770774899.7743704,,,16.6015625,-632.32421875,-639.6484375,7.32421875
1770774899.7781162,,,16.11328125,-477.5390625,-480.46875,20.5078125
1770774899.781862,,,28.80859375,-525.87890625,-551.7578125,43.9453125
1770774899.7856078,,,29.78515625,-1000.0,-1000.0,27.83203125
1770774899.7893534,,,10.7421875,-479.4921875,-588.37890625,-24.4140625
1770774899.7930992,,,15.13671875,-141.11328125,-286.1328125,-26.3671875
1770774899.796845,,,29.78515625,-523.4375,-584.47265625,3.90625
1770774899.800517,,,33.203125,-389.6484375,-501.46484375,17.08984375
1770774899.8041892,,,30.2734375,-75.1953125,-274.90234375,3.41796875
1770774899.8078613,,,12.6953125,-151.85546875,-332.03125,-8.30078125
1770774899.8115337,,,8.7890625,-401.3671875,-511.23046875,6.34765625
1770774899.8152058,,,17.08984375,-335.9375,-449.70703125,21.484375
1770774899.818878,,,10.7421875,-472.65625,-546.38671875,23.92578125
1770774899.82255,,,-0.48828125,-725.5859375,-703.125,0.48828125
1770774899.8262222,,,5.859375,-942.3828125,-911.1328125,-2.9296875
1770774899.8298943,,,21.97265625,-770.5078125,-809.08203125,10.7421875
1770774899.8335667,,,22.94921875,-101.07421875,-239.2578125,11.71875
1770774899.8372388,,,8.30078125,-208.49609375,-307.6171875,0.0
1770774899.840911,,,4.8828125,-456.0546875,-488.28125,7.32421875
1770774899.8446639,,,15.13671875,-164.55078125,-273.92578125,28.80859375
1770774899.8484168,,,14.6484375,46.875,-123.046875,27.34375
1770774899.85217,,,1.46484375,-328.61328125,-408.69140625,0.9765625
1770774899.855923,,,0.0,-531.73828125,-581.0546875,-6.34765625
1770774899.859676,,,11.71875,-181.15234375,-332.03125,14.16015625
1770774899.863429,,,18.06640625,-357.421875,-446.77734375,19.53125
1770774899.867182,,,5.37109375,-810.05859375,-810.546875,7.8125
1770774899.870935,,,-1.953125,-833.49609375,-888.671875,-6.34765625
1770774899.874688,,,20.01953125,-244.62890625,-442.87109375,2.44140625
1770774899.8784409,,,29.296875,16.6015625,-228.02734375,14.6484375
1770774899.882194,,,17.08984375,-426.7578125,-563.4765625,16.6015625
1770774899.885947,,,-0.48828125,-592.28515625,-690.91796875,0.0
1770774899.8897908,,,-11.71875,-172.36328125,-375.48828125,-3.41796875
1770774899.8936348,,,-21.484375,-104.98046875,-298.33984375,25.390625
1770774899.8974786,,,-25.87890625,-607.91015625,-696.2890625,38.0859375
1770774899.9013224,,,-32.71484375,-614.74609375,-711.42578125,20.99609375
1770774899.9051661,,,-27.83203125,-193.84765625,-350.09765625,15.625
1770774899.90901,,,-22.4609375,-464.35546875,-523.4375,28.80859375
1770774899.912854,,,-33.69140625,-905.2734375,-893.5546875,36.1328125
1770774899.9166977,,,-29.78515625,-656.73828125,-742.67578125,3.41796875
1770774899.9205415,,,-23.92578125,-91.796875,-286.62109375,-18.5546875
1770774899.9243855,,,-29.78515625,-189.94140625,-348.6328125,0.0
1770774899.9282293,,,-26.85546875,-377.44140625,-485.3515625,4.8828125
1770774899.932073,,,-21.97265625,-154.296875,-338.37890625,-2.9296875
1770774899.936922,,,-25.87890625,25.87890625,-213.37890625,-17.08984375
1770774899.941771,,,-19.53125,-250.0,-410.15625,-18.5546875
1770774899.9466197,,,-7.32421875,-614.2578125,-673.33984375,-1.953125
1770774899.9514687,,,-9.765625,-276.85546875,-434.5703125,-11.71875
1770774899.9563177,,,-19.04296875,2.9296875,-234.375,-37.59765625
1770774899.9611664,,,-21.484375,-494.62890625,-597.16796875,-27.34375
1770774899.9660153,,,-35.15625,-1000.0,-1000.0,-4.8828125
1770774899.9708643,,,-38.57421875,-469.23828125,-606.4453125,-13.671875
1770774899.9757133,,,-30.2734375,72.75390625,-166.50390625,-37.59765625
1770774899.9805622,,,-20.99609375,-280.76171875,-447.265625,-37.59765625
1770774899.985411,,,-1.953125,-325.1953125,-495.1171875,-10.25390625
1770774899.99026,,,-7.32421875,-7.8125,-267.08984375,-5.859375
1770774899.9941025,,,-39.0625,-26.3671875,-274.4140625,-33.69140625
1770774899.997945,,,-40.0390625,-273.4375,-455.56640625,-43.9453125
1770774900.0017877,,,-16.11328125,-270.5078125,-467.7734375,-22.94921875
1770774900.0056303,,,-1.46484375,13.18359375,-257.8125,-15.13671875
1770774900.0094728,,,-10.7421875,-106.93359375,-346.19140625,-24.4140625
1770774900.0133154,,,-23.92578125,-658.203125,-772.4609375,-30.76171875
1770774900.017158,,,-10.25390625,-752.44140625,-831.0546875,-21.484375
1770774900.0210006,,,2.44140625,-597.16796875,-687.5,-1.953125
1770774900.0248432,,,10.25390625,-458.49609375,-585.9375,1.953125
1770774900.0286858,,,-4.39453125,-799.31640625,-846.6796875,-5.37109375
1770774900.0325284,,,-7.8125,-763.18359375,-848.14453125,-5.37109375
1770774900.036371,,,8.7890625,-131.8359375,-380.859375,0.0
1770774900.0413895,,,12.20703125,-304.19921875,-464.84375,6.34765625
1770774900.0464077,,,4.39453125,-482.421875,-573.2421875,-15.625
1770774900.0514262,,,-3.90625,-264.16015625,-418.45703125,-21.484375
1770774900.0564446,,,1.953125,-149.4140625,-323.73046875,3.90625
1770774900.061463,,,13.671875,-395.5078125,-488.28125,15.13671875
1770774900.0664816,,,1.953125,-894.04296875,-849.12109375,-2.9296875
1770774900.0714998,,,-10.25390625,-667.48046875,-694.3359375,-34.66796875
1770774900.0765183,,,-7.32421875,-176.26953125,-325.68359375,-30.2734375
1770774900.0815368,,,-7.8125,-527.83203125,-601.5625,-3.90625
1770774900.086555,,,-15.625,-1000.0,-993.65234375,-3.90625
1770774900.0915735,,,-20.01953125,-477.05078125,-565.4296875,-28.3203125
1770774900.096592,,,-20.01953125,-79.1015625,-224.609375,-19.04296875
1770774900.0990884,,,-31.25,-593.75,-650.390625,-2.9296875
1770774900.101585,,,-28.80859375,-700.1953125,-755.37109375,-8.30078125
1770774900.1040814,,,-29.296875,-261.71875,-377.44140625,-32.71484375
1770774900.1065779,,,-21.484375,-255.859375,-367.1875,-48.33984375
1770774900.1090744,,,-8.30078125,-523.4375,-556.640625,-30.76171875
1770774900.111571,,,-16.11328125,-842.28515625,-795.8984375,-14.16015625
1770774900.1140676,,,-30.76171875,-660.64453125,-679.6875,-29.296875
1770774900.116564,,,-29.296875,-338.8671875,-439.453125,-29.296875
1770774900.1190605,,,-22.4609375,-726.5625,-770.99609375,-11.23046875
1770774900.121557,,,-14.6484375,-588.37890625,-701.66015625,-24.4140625
1770774900.1240535,,,-9.765625,-62.01171875,-282.2265625,-52.24609375
1770774900.12655,,,-12.20703125,-284.66796875,-443.84765625,-50.78125
1770774900.1303551,,,-11.23046875,-661.1328125,-726.5625,-24.4140625
1770774900.13416,,,-8.30078125,-570.3125,-657.2265625,-15.13671875
1770774900.1379652,,,-12.20703125,-189.453125,-373.046875,-24.4140625
1770774900.1417704,,,-20.5078125,-406.73828125,-543.45703125,-30.76171875
1770774900.1455753,,,-26.85546875,-771.97265625,-830.56640625,-27.83203125
1770774900.1493804,,,-25.390625,-695.80078125,-758.7890625,-13.18359375
1770774900.1531856,,,-8.7890625,-517.578125,-610.83984375,-15.13671875
1770774900.1569905,,,-26.85546875,-628.90625,-707.03125,-41.9921875
1770774900.1607957,,,-35.15625,-829.58984375,-881.34765625,-40.0390625
1770774900.1646008,,,-15.625,-267.08984375,-464.35546875,-24.90234375
1770774900.1684058,,,-20.99609375,-119.140625,-346.19140625,-5.37109375
1770774900.172211,,,-40.52734375,-462.890625,-598.6328125,-19.53125
1770774900.175894,,,-41.9921875,-469.23828125,-601.07421875,-44.43359375
1770774900.1795769,,,-30.2734375,-219.23828125,-417.48046875,-34.1796875
1770774900.18326,,,-21.484375,-198.2421875,-373.53515625,-20.5078125
1770774900.186943,,,-21.97265625,-359.375,-479.4921875,-40.52734375
1770774900.190626,,,-26.85546875,-491.2109375,-588.37890625,-62.5
1770774900.194309,,,-28.3203125,-617.67578125,-676.26953125,-54.19921875
1770774900.197992,,,-21.484375,-610.83984375,-665.0390625,-33.69140625
1770774900.201675,,,-20.5078125,-850.09765625,-859.86328125,-30.2734375
1770774900.205358,,,-33.69140625,-829.1015625,-884.765625,-62.98828125
1770774900.209041,,,-39.55078125,-181.15234375,-409.1796875,-64.453125
1770774900.212724,,,-27.83203125,-231.4453125,-438.96484375,-34.1796875
1770774900.216407,,,-24.90234375,-470.21484375,-611.328125,-30.2734375
1770774900.2202122,,,-38.0859375,-156.73828125,-380.859375,-55.17578125
1770774900.2240176,,,-35.15625,22.94921875,-250.48828125,-49.8046875
1770774900.2278228,,,-24.90234375,-353.515625,-527.83203125,-21.484375
1770774900.231628,,,-11.71875,-527.83203125,-659.66796875,-20.99609375
1770774900.2354333,,,-23.4375,-234.86328125,-451.66015625,-45.8984375
1770774900.2392385,,,-33.203125,-483.88671875,-638.18359375,-61.5234375
1770774900.2430437,,,-14.6484375,-841.796875,-887.6953125,-47.8515625
1770774900.246849,,,-10.7421875,-813.96484375,-882.8125,-35.15625
1770774900.2506542,,,-7.8125,-506.8359375,-674.8046875,-48.33984375
1770774900.2544594,,,-0.48828125,-108.3984375,-384.27734375,-54.19921875
1770774900.2582648,,,11.23046875,-445.80078125,-628.90625,-23.92578125
1770774900.26207,,,-1.46484375,-601.07421875,-746.09375,2.44140625
1770774900.2668333,,,-22.4609375,-7.8125,-311.03515625,1.46484375
1770774900.2715964,,,-23.4375,4.39453125,-292.48046875,-19.04296875
1770774900.2763596,,,-28.3203125,-246.58203125,-469.7265625,-35.15625
1770774900.281123,,,-23.4375,-156.25,-395.5078125,-33.69140625
1770774900.2858863,,,-8.7890625,13.671875,-282.71484375,-24.4140625
1770774900.2906494,,,-19.04296875,-369.62890625,-573.73046875,-31.25
1770774900.2954125,,,-28.80859375,-875.0,-929.19921875,-28.3203125
1770774900.300176,,,-30.2734375,-598.14453125,-732.91015625,-32.2265625
1770774900.3049393,,,-26.3671875,38.0859375,-269.04296875,-40.52734375
1770774900.3097024,,,-28.3203125,-106.4453125,-363.76953125,-51.26953125
1770774900.3144655,,,-42.48046875,-313.96484375,-534.1796875,-65.4296875
1770774900.319229,,,-31.25,-344.23828125,-557.12890625,-49.8046875
1770774900.3229887,,,-14.6484375,-297.36328125,-513.18359375,-26.85546875
1770774900.3267488,,,-22.4609375,-346.19140625,-542.48046875,-24.90234375
1770774900.3305087,,,-27.83203125,-666.50390625,-775.87890625,-44.43359375
1770774900.3342686,,,-20.99609375,-286.62109375,-514.6484375,-39.0625
1770774900.3380284,,,-11.71875,-73.73046875,-334.9609375,-14.6484375
1770774900.3417883,,,-10.25390625,-628.41796875,-722.16796875,-8.30078125
1770774900.3455484,,,-24.4140625,-794.921875,-857.421875,-19.53125
1770774900.3493083,,,-32.2265625,-204.58984375,-438.96484375,-27.34375
1770774900.353068,,,-28.3203125,-22.4609375,-298.828125,-7.32421875
1770774900.3568282,,,-25.87890625,-429.6875,-589.84375,9.27734375
1770774900.360588,,,-36.1328125,-513.18359375,-669.43359375,-14.6484375
1770774900.364348,,,-49.31640625,-71.2890625,-354.00390625,-37.59765625
1770774900.368299,,,-42.96875,-33.69140625,-312.01171875,-34.66796875
1770774900.37225,,,-32.2265625,-308.59375,-517.578125,-33.203125
1770774900.3762012,,,-29.78515625,-301.7578125,-518.06640625,-53.7109375
1770774900.3801522,,,-25.87890625,-333.49609375,-536.62109375,-60.05859375
1770774900.3841033,,,-27.83203125,-271.97265625,-493.1640625,-48.828125
1770774900.3880544,,,-41.9921875,-636.71875,-739.2578125,-34.66796875
1770774900.3920057,,,-51.26953125,-817.3828125,-878.41796875,-56.640625
1770774900.3959568,,,-52.24609375,-105.95703125,-367.1875,-89.84375
1770774900.3999078,,,-43.9453125,-83.0078125,-335.9375,-70.3125
1770774900.403859,,,-41.015625,-357.91015625,-548.828125,-41.015625
1770774900.40781,,,-31.73828125,-146.484375,-409.1796875,-31.25
1770774900.411761,,,-20.99609375,63.4765625,-260.25390625,-53.7109375
1770774900.4165905,,,-23.4375,-239.2578125,-480.95703125,-59.5703125
1770774900.42142,,,-23.92578125,-460.44921875,-638.671875,-44.921875
1770774900.4262495,,,-23.4375,-164.55078125,-398.4375,-43.45703125
1770774900.4310791,,,-26.3671875,-26.85546875,-276.3671875,-45.8984375
1770774900.4359086,,,-32.2265625,-375.9765625,-530.2734375,-42.48046875
1770774900.4407382,,,-32.2265625,-795.41015625,-820.80078125,-24.4140625
1770774900.4455676,,,-24.4140625,-629.39453125,-664.55078125,-25.87890625
1770774900.450397,,,-22.4609375,-492.1875,-541.9921875,-53.7109375
1770774900.4552267,,,-30.2734375,-739.2578125,-754.8828125,-62.98828125
1770774900.460056,,,-21.484375,-971.19140625,-985.3515625,-45.41015625
1770774900.4648857,,,-19.53125,-415.0390625,-565.91796875,-33.203125
1770774900.469715,,,-30.76171875,-21.97265625,-245.60546875,-42.48046875
1770774900.4723284,,,-36.62109375,-383.7890625,-523.92578125,-59.5703125
1770774900.4749417,,,-28.80859375,-373.53515625,-528.80859375,-46.875
1770774900.4775548,,,-21.97265625,-80.078125,-332.03125,-27.34375
1770774900.480168,,,-26.3671875,-117.1875,-364.2578125,-15.625
1770774900.4827814,,,-40.52734375,-351.07421875,-535.15625,-23.4375
1770774900.4853945,,,-45.8984375,-571.2890625,-702.63671875,-39.0625
1770774900.4880078,,,-35.15625,-523.92578125,-673.828125,-31.73828125
1770774900.490621,,,-26.3671875,-255.37109375,-485.3515625,-17.578125
1770774900.4932344,,,-37.109375,-687.98828125,-791.015625,-25.390625
1770774900.4958477,,,-50.29296875,-595.21484375,-755.37109375,-42.48046875
1770774900.4984608,,,-39.55078125,-132.32421875,-422.36328125,-36.62109375
1770774900.501074,,,-29.78515625,-459.47265625,-639.16015625,-25.87890625
1770774900.5048132,,,-43.9453125,-681.640625,-814.94140625,-38.0859375
1770774900.5085523,,,-52.24609375,-335.44921875,-590.8203125,-48.33984375
1770774900.5122914,,,-49.31640625,26.3671875,-314.453125,-22.94921875
1770774900.5160303,,,-39.0625,-258.7890625,-502.44140625,-14.16015625
1770774900.5197694,,,-29.78515625,-402.83203125,-587.890625,-36.1328125
1770774900.5235085,,,-35.15625,-393.06640625,-573.2421875,-60.546875
1770774900.5272477,,,-35.64453125,-477.5390625,-637.6953125,-53.7109375
1770774900.5309868,,,-30.76171875,-674.31640625,-760.7421875,-28.80859375
1770774900.534726,,,-32.2265625,-830.078125,-893.5546875,-21.97265625
1770774900.5384648,,,-38.57421875,-199.21875,-454.1015625,-53.22265625
1770774900.542204,,,-37.59765625,107.421875,-212.40234375,-61.03515625
1770774900.545943,,,-30.76171875,-251.953125,-466.796875,-36.1328125
1770774900.549721,,,-23.92578125,-198.73046875,-421.38671875,-29.78515625
1770774900.5534992,,,-31.73828125,50.29296875,-240.72265625,-44.43359375
1770774900.5572772,,,-36.62109375,-267.578125,-474.609375,-54.6875
1770774900.5610554,,,-27.34375,-621.58203125,-746.58203125,-40.52734375
1770774900.5648334,,,-19.53125,-368.65234375,-569.3359375,-15.13671875
1770774900.5686114,,,-20.5078125,-252.9296875,-457.03125,-20.5078125
1770774900.5723896,,,-26.3671875,-475.5859375,-607.421875,-43.45703125
1770774900.5761676,,,-29.296875,-757.8125,-821.77734375,-28.3203125
1770774900.5799458,,,-23.4375,-569.3359375,-706.0546875,-9.27734375
1770774900.5837238,,,-12.6953125,91.30859375,-214.84375,-7.8125
1770774900.587502,,,-38.0859375,-104.98046875,-352.05078125,-19.04296875
1770774900.59128,,,-60.05859375,-395.01953125,-565.4296875,-19.53125
1770774900.594957,,,-45.41015625,-156.25,-389.6484375,-5.37109375
1770774900.5986342,,,-41.50390625,53.22265625,-228.02734375,-20.99609375
1770774900.6023114,,,-49.8046875,-259.27734375,-457.51953125,-53.22265625
1770774900.6059887,,,-42.48046875,-461.9140625,-624.0234375,-49.8046875
1770774900.6096659,,,-27.34375,-194.3359375,-428.22265625,-29.78515625
1770774900.613343,,,-20.99609375,-357.91015625,-509.27734375,-14.16015625
1770774900.6170201,,,-32.71484375,-723.14453125,-756.8359375,-10.25390625
1770774900.6206973,,,-39.55078125,-989.2578125,-1000.0,-16.6015625
1770774900.6243744,,,-29.296875,-436.5234375,-602.05078125,-21.484375
1770774900.6280518,,,-13.18359375,107.91015625,-169.43359375,-10.7421875
1770774900.631729,,,-15.13671875,-349.609375,-496.58203125,-11.71875
1770774900.635406,,,-27.83203125,-453.61328125,-563.4765625,-33.203125
1770774900.6404686,,,-32.71484375,-24.4140625,-264.6484375,-26.3671875
1770774900.645531,,,-31.25,7.32421875,-252.9296875,-7.32421875
1770774900.6505935,,,-30.76171875,-268.06640625,-451.171875,-9.765625
1770774900.655656,,,-41.015625,-254.8828125,-466.796875,-28.80859375
1770774900.6607184,,,-38.57421875,-74.21875,-346.6796875,-32.71484375
1770774900.665781,,,-26.3671875,-360.3515625,-523.92578125,-17.578125
1770774900.6708436,,,-31.73828125,-841.30859375,-872.0703125,-3.41796875
1770774900.675906,,,-39.55078125,-623.53515625,-748.046875,-22.94921875
1770774900.6809685,,,-23.92578125,-62.98828125,-326.171875,-32.2265625
1770774900.686031,,,-10.7421875,-337.890625,-469.7265625,-6.8359375
1770774900.6910934,,,-2.44140625,-609.86328125,-681.640625,5.37109375
1770774900.696156,,,-26.3671875,-257.32421875,-440.4296875,1.953125
1770774900.6997995,,,-41.9921875,20.5078125,-208.0078125,-15.625
1770774900.703443,,,-27.83203125,-264.6484375,-405.2734375,-17.08984375
1770774900.7070868,,,-20.5078125,-425.78125,-519.04296875,-11.71875
1770774900.7107303,,,-20.01953125,-83.0078125,-286.1328125,-19.53125
1770774900.7143738,,,-36.1328125,-40.0390625,-254.39453125,-36.1328125
1770774900.7180176,,,-47.36328125,-617.1875,-679.19921875,-27.83203125
1770774900.721661,,,-36.1328125,-805.6640625,-850.5859375,-8.7890625
1770774900.7253046,,,-13.671875,-248.046875,-424.31640625,-3.41796875
1770774900.728948,,,-23.4375,-30.76171875,-246.58203125,-20.5078125
1770774900.7325916,,,-49.31640625,-441.89453125,-563.4765625,-47.8515625
1770774900.7362354,,,-47.36328125,-527.83203125,-635.7421875,-48.33984375
1770774900.739879,,,-46.38671875,-78.125,-308.10546875,-49.31640625
1770774900.7450418,,,-66.40625,-237.3046875,-407.71484375,-59.08203125
1770774900.750205,,,-77.1484375,-759.765625,-811.5234375,-63.96484375
1770774900.755368,,,-73.73046875,-542.96875,-672.8515625,-74.21875
1770774900.760531,,,-61.03515625,8.30078125,-234.375,-66.40625
1770774900.765694,,,-64.94140625,-118.65234375,-329.1015625,-63.4765625
1770774900.7708569,,,-83.984375,-685.546875,-735.3515625,-80.56640625
1770774900.77602,,,-81.54296875,-736.328125,-765.625,-80.56640625
1770774900.781183,,,-55.6640625,-187.01171875,-366.69921875,-59.08203125
1770774900.786346,,,-45.8984375,-73.73046875,-268.06640625,-46.875
1770774900.7915092,,,-60.05859375,-626.953125,-710.44921875,-59.08203125
1770774900.796672,,,-56.640625,-497.55859375,-638.18359375,-42.96875
1770774900.801835,,,-32.71484375,27.34375,-205.078125,-21.97265625
1770774900.8054132,,,-19.04296875,-255.37109375,-404.296875,-36.1328125
1770774900.8089912,,,-32.71484375,-508.7890625,-594.23828125,-55.6640625
1770774900.8125694,,,-38.0859375,-186.03515625,-359.86328125,-62.01171875
1770774900.8161473,,,-31.25,-59.5703125,-257.32421875,-50.29296875
1770774900.8197255,,,-30.2734375,-513.671875,-595.703125,-39.0625
1770774900.8233037,,,-36.1328125,-949.21875,-944.82421875,-39.0625
1770774900.8268816,,,-44.43359375,-609.86328125,-673.33984375,-44.43359375
1770774900.8304598,,,-37.109375,-75.1953125,-264.6484375,-41.015625
1770774900.8340378,,,-28.3203125,-416.50390625,-520.99609375,-39.0625
1770774900.837616,,,-25.390625,-581.54296875,-662.109375,-48.828125
1770774900.841194,,,-38.0859375,-77.63671875,-307.6171875,-59.5703125
1770774900.844772,,,-34.1796875,45.8984375,-229.00390625,-46.38671875
1770774900.8474057,,,-17.578125,-493.1640625,-625.9765625,-12.20703125
1770774900.8500395,,,-31.25,-944.3359375,-974.12109375,-3.41796875
1770774900.852673,,,-44.921875,-300.78125,-517.08984375,-38.0859375
1770774900.8553066,,,-32.71484375,23.92578125,-255.37109375,-39.0625
1770774900.8579404,,,-21.484375,-236.81640625,-426.7578125,-31.25
1770774900.860574,,,-22.4609375,-515.13671875,-628.90625,-33.203125
1770774900.8632076,,,-27.34375,-505.37109375,-636.71875,-49.31640625
1770774900.8658414,,,-27.34375,-337.40234375,-508.30078125,-49.31640625
1770774900.868475,,,-19.04296875,-710.44921875,-792.48046875,-24.90234375
1770774900.8711085,,,-20.01953125,-490.72265625,-643.06640625,-20.01953125
1770774900.8737423,,,-26.3671875,152.83203125,-131.34765625,-35.15625
1770774900.876376,,,-31.25,-91.30859375,-303.7109375,-42.96875
1770774900.8801298,,,-34.1796875,-616.2109375,-716.796875,-31.25
1770774900.8838835,,,-40.0390625,-333.49609375,-497.0703125,-20.99609375
1770774900.8876374,,,-37.109375,80.078125,-160.15625,-19.53125
1770774900.8913913,,,-35.64453125,-209.47265625,-368.1640625,-25.390625
1770774900.8951452,,,-24.4140625,-387.20703125,-485.83984375,-15.13671875
1770774900.898899,,,-15.13671875,-426.7578125,-502.44140625,-3.90625
1770774900.9026527,,,-23.4375,-278.3203125,-387.6953125,-4.8828125
1770774900.9064066,,,-32.2265625,-436.03515625,-539.0625,-22.4609375
1770774900.9101605,,,-44.921875,-796.38671875,-845.703125,-33.203125
1770774900.9139142,,,-40.0390625,-175.78125,-370.1171875,-23.4375
1770774900.917668,,,-30.2734375,107.421875,-157.71484375,-11.71875
1770774900.921422,,,-44.921875,-413.57421875,-550.29296875,-39.55078125
1770774900.925212,,,-58.10546875,-453.61328125,-568.84765625,-59.5703125
1770774900.9290018,,,-49.31640625,59.5703125,-171.875,-49.31640625
1770774900.9327915,,,-43.9453125,-4.8828125,-213.8671875,-44.921875
1770774900.9365814,,,-52.24609375,-415.0390625,-533.69140625,-51.26953125
1770774900.9403713,,,-58.59375,-449.21875,-549.31640625,-62.5
1770774900.944161,,,-48.828125,-467.28515625,-547.36328125,-51.26953125
1770774900.9479508,,,-31.73828125,-541.9921875,-591.796875,-34.66796875
1770774900.9517407,,,-30.2734375,-758.30078125,-782.71484375,-26.3671875
1770774900.9555306,,,-39.55078125,-622.0703125,-734.86328125,-39.0625
1770774900.9593205,,,-35.64453125,32.71484375,-208.0078125,-44.43359375
1770774900.9631102,,,-19.53125,-95.21484375,-268.5546875,-31.73828125
1770774900.9669,,,-24.4140625,-340.33203125,-442.87109375,-32.2265625
1770774900.9705896,,,-42.48046875,-131.34765625,-301.26953125,-47.8515625
1770774900.974279,,,-41.50390625,28.80859375,-185.546875,-43.9453125
1770774900.9779682,,,-33.69140625,-320.80078125,-429.6875,-27.34375
1770774900.9816577,,,-32.71484375,-610.3515625,-637.6953125,-16.11328125
1770774900.9853473,,,-49.31640625,-289.0625,-402.34375,-25.87890625
1770774900.9890366,,,-49.8046875,-421.875,-488.28125,-39.55078125
1770774900.9927258,,,-39.55078125,-783.203125,-768.06640625,-32.2265625
1770774900.9964154,,,-39.55078125,-980.46875,-990.72265625,-26.85546875
1770774901.000105,,,-42.48046875,-453.125,-603.02734375,-45.8984375
1770774901.0037942,,,-41.9921875,50.29296875,-191.40625,-53.7109375
1770774901.0074835,,,-34.1796875,-300.78125,-452.63671875,-32.71484375
1770774901.011173,,,-24.90234375,-319.3359375,-470.703125,-12.20703125
1770774901.0162113,,,-31.73828125,-47.36328125,-267.08984375,-20.01953125
1770774901.0212498,,,-46.875,-101.5625,-308.10546875,-51.7578125
1770774901.026288,,,-40.52734375,-375.0,-517.08984375,-72.265625
1770774901.0313263,,,-29.296875,-315.91796875,-478.02734375,-59.08203125
1770774901.0363648,,,-20.5078125,-103.02734375,-316.89453125,-38.57421875
1770774901.041403,,,-30.76171875,-434.08203125,-536.62109375,-55.17578125
1770774901.0464413,,,-46.38671875,-916.015625,-908.203125,-59.08203125
1770774901.0514798,,,-39.55078125,-760.7421875,-817.3828125,-41.50390625
1770774901.056518,,,-23.4375,-81.0546875,-282.2265625,-39.0625
1770774901.0615563,,,-29.296875,-104.00390625,-284.1796875,-44.43359375
1770774901.0665948,,,-37.109375,-586.42578125,-642.08984375,-49.31640625
1770774901.071633,,,-42.96875,-481.93359375,-572.265625,-47.8515625
1770774901.0754185,,,-41.015625,-72.265625,-279.78515625,-43.9453125
1770774901.0792038,,,-37.109375,-289.0625,-440.4296875,-42.96875
1770774901.0829892,,,-47.36328125,-517.08984375,-615.234375,-54.6875
1770774901.0867748,,,-42.48046875,-174.8046875,-383.30078125,-54.19921875
1770774901.0905602,,,-29.296875,-97.65625,-327.1484375,-46.38671875
1770774901.0943456,,,-25.87890625,-645.5078125,-726.5625,-50.78125
1770774901.098131,,,-44.921875,-818.84765625,-877.9296875,-62.01171875
1770774901.1019163,,,-56.640625,-249.0234375,-462.40234375,-53.7109375
1770774901.1057017,,,-37.109375,59.5703125,-206.54296875,-31.25
1770774901.1094873,,,-29.78515625,-423.33984375,-551.7578125,-32.71484375
1770774901.1132727,,,-42.96875,-783.69140625,-829.1015625,-50.29296875
1770774901.117058,,,-38.0859375,-256.8359375,-451.66015625,-51.7578125
1770774901.1208487,,,-45.41015625,-13.671875,-256.34765625,-27.83203125
1770774901.1246393,,,-61.03515625,-545.41015625,-656.25,-2.9296875
1770774901.12843,,,-57.6171875,-581.54296875,-701.66015625,-14.6484375
1770774901.1322207,,,-49.8046875,-64.453125,-296.875,-30.76171875
1770774901.1360114,,,-31.73828125,-76.66015625,-295.41015625,-13.671875
1770774901.139802,,,-5.859375,-523.92578125,-616.2109375,14.16015625
1770774901.1435926,,,-9.765625,-630.37109375,-697.265625,13.18359375
1770774901.1473832,,,-27.83203125,-167.48046875,-368.1640625,-9.27734375
1770774901.1511738,,,-33.69140625,-132.32421875,-325.68359375,-11.71875
1770774901.1549647,,,-18.06640625,-617.1875,-706.0546875,15.13671875
1770774901.1587553,,,-5.859375,-458.0078125,-623.046875,8.7890625
1770774901.162546,,,-6.34765625,33.203125,-260.7421875,-7.32421875
1770774901.1674933,,,9.765625,-150.390625,-407.71484375,19.53125
1770774901.1724405,,,20.99609375,-558.10546875,-701.171875,24.4140625
1770774901.177388,,,16.6015625,-480.95703125,-643.5546875,23.92578125
1770774901.1823354,,,10.25390625,-106.93359375,-374.51171875,10.25390625
1770774901.1872826,,,9.765625,-362.79296875,-548.33984375,3.41796875
1770774901.19223,,,5.37109375,-890.625,-913.0859375,24.4140625
1770774901.1971774,,,8.30078125,-624.0234375,-691.89453125,30.76171875
1770774901.2021246,,,4.8828125,-104.98046875,-298.828125,20.99609375
1770774901.207072,,,-12.20703125,-485.3515625,-592.28515625,16.11328125
1770774901.2120194,,,-6.8359375,-849.609375,-883.7890625,32.2265625
1770774901.2169666,,,-0.9765625,-217.28515625,-378.90625,41.50390625
1770774901.221914,,,-4.8828125,2.9296875,-184.5703125,27.83203125
1770774901.2243328,,,-13.18359375,-319.3359375,-435.546875,5.37109375
1770774901.2267516,,,-13.18359375,-269.53125,-407.2265625,19.53125
1770774901.2291703,,,0.48828125,29.296875,-176.7578125,22.4609375
1770774901.231589,,,5.37109375,-34.1796875,-217.28515625,10.7421875
1770774901.2340078,,,-6.8359375,-343.75,-461.42578125,-7.8125
1770774901.2364264,,,-7.32421875,-547.8515625,-601.07421875,-17.578125
1770774901.238845,,,-2.44140625,-577.63671875,-624.0234375,-2.44140625
1770774901.2412639,,,-7.8125,-569.82421875,-627.9296875,3.41796875
1770774901.2436826,,,-10.7421875,-599.12109375,-691.40625,-20.01953125
1770774901.2461014,,,-9.27734375,-331.0546875,-521.97265625,-41.9921875
1770774901.2485201,,,3.90625,8.7890625,-255.37109375,-34.66796875
1770774901.250939,,,14.16015625,-43.45703125,-301.7578125,-19.53125
1770774901.2546835,,,8.30078125,-781.25,-841.796875,-17.08984375
1770774901.258428,,,-0.9765625,-711.42578125,-799.31640625,-35.15625
1770774901.2621727,,,6.8359375,74.70703125,-207.03125,-23.92578125
1770774901.2659173,,,11.71875,-124.0234375,-326.66015625,-0.9765625
1770774901.269662,,,7.32421875,-293.9453125,-440.4296875,-1.953125
1770774901.2734065,,,0.9765625,-283.203125,-433.10546875,-11.23046875
1770774901.277151,,,1.953125,-419.43359375,-517.578125,-17.08984375
1770774901.2808957,,,4.39453125,-637.6953125,-686.5234375,-14.16015625
1770774901.2846403,,,6.8359375,-908.203125,-931.15234375,-14.16015625
1770774901.288385,,,5.859375,-424.8046875,-558.59375,-34.1796875
1770774901.2921295,,,6.8359375,166.9921875,-83.49609375,-34.66796875
1770774901.295874,,,2.9296875,-356.4453125,-482.421875,-23.4375
1770774901.300744,,,-0.48828125,-534.66796875,-618.1640625,-30.2734375
1770774901.305614,,,-7.8125,92.28515625,-145.5078125,-41.015625
1770774901.3104842,,,-13.18359375,58.59375,-185.546875,-39.0625
1770774901.315354,,,-5.37109375,-177.734375,-366.69921875,-25.87890625
1770774901.320224,,,2.44140625,-148.92578125,-339.35546875,-6.34765625
1770774901.3250942,,,-4.39453125,-261.23046875,-416.9921875,-11.23046875
1770774901.3299642,,,-10.25390625,-407.2265625,-541.50390625,-28.80859375
1770774901.334834,,,-6.8359375,-729.00390625,-800.29296875,-4.8828125
1770774901.339704,,,-2.44140625,-564.94140625,-698.2421875,13.671875
1770774901.344574,,,2.44140625,113.28125,-191.40625,-5.37109375
1770774901.3494442,,,4.39453125,-49.31640625,-304.19921875,-38.0859375
1770774901.354314,,,1.953125,-228.515625,-426.26953125,-41.50390625
1770774901.3570313,,,-16.6015625,-195.3125,-371.09375,-23.4375
1770774901.3597484,,,-19.04296875,-28.80859375,-233.3984375,-20.99609375
1770774901.3624656,,,-23.4375,-140.625,-333.0078125,-35.15625
1770774901.3651826,,,-32.2265625,-535.15625,-625.48828125,-48.33984375
1770774901.3679,,,-24.90234375,-164.0625,-329.58984375,-31.25
1770774901.3706172,,,-19.53125,-142.578125,-275.390625,-5.859375
1770774901.3733342,,,-26.3671875,-621.09375,-631.34765625,-14.6484375
1770774901.3760514,,,-31.25,-731.4453125,-778.80859375,-24.90234375
1770774901.3787684,,,-12.6953125,-59.08203125,-264.6484375,-38.0859375
1770774901.3814857,,,1.953125,230.95703125,-2.44140625,-32.2265625
1770774901.3842027,,,-6.8359375,-245.1171875,-373.53515625,-23.4375
1770774901.38692,,,-19.04296875,-293.45703125,-422.36328125,-47.8515625
1770774901.3917346,,,-21.97265625,151.3671875,-77.1484375,-44.921875
1770774901.3965492,,,-23.4375,131.34765625,-88.37890625,-19.04296875
1770774901.401364,,,-26.3671875,-137.20703125,-286.1328125,-9.27734375
1770774901.4061787,,,-28.80859375,-268.5546875,-382.8125,-21.97265625
1770774901.4109933,,,-33.69140625,-259.27734375,-359.375,-15.13671875
1770774901.415808,,,-24.4140625,-280.2734375,-329.1015625,-4.8828125
1770774901.4206226,,,-14.16015625,-729.98046875,-717.7734375,20.99609375
1770774901.4254372,,,-24.4140625,-786.1328125,-830.56640625,3.90625
1770774901.430252,,,-28.80859375,9.27734375,-166.015625,-41.50390625
1770774901.4350667,,,-33.69140625,106.4453125,-42.48046875,-24.4140625
1770774901.4398813,,,-45.41015625,-142.578125,-213.8671875,-12.6953125
1770774901.444696,,,-49.31640625,52.734375,-65.4296875,-28.80859375
1770774901.4484484,,,-47.36328125,216.796875,46.875,-36.62109375
1770774901.452201,,,-39.55078125,-65.4296875,-171.38671875,-24.90234375
1770774901.4559534,,,-23.92578125,-270.01953125,-335.9375,-21.484375
1770774901.459706,,,-23.4375,48.33984375,-116.69921875,-38.0859375
1770774901.4634585,,,-33.69140625,118.65234375,-76.66015625,-51.26953125
1770774901.467211,,,-29.296875,-494.62890625,-544.43359375,-39.0625
1770774901.4709635,,,-23.4375,-683.59375,-735.83984375,-26.85546875
1770774901.474716,,,-22.94921875,-238.76953125,-398.4375,-36.1328125
1770774901.4784684,,,-23.4375,34.1796875,-200.68359375,-63.96484375
1770774901.4822211,,,-26.85546875,-309.5703125,-488.76953125,-59.5703125
1770774901.4859736,,,-24.90234375,-697.265625,-790.52734375,-44.921875
1770774901.489726,,,-24.90234375,-112.3046875,-358.88671875,-51.7578125
1770774901.4936013,,,-28.3203125,104.4921875,-184.08203125,-58.59375
1770774901.4974766,,,-26.3671875,-139.16015625,-372.55859375,-60.05859375
1770774901.5013518,,,-24.90234375,-161.62109375,-400.87890625,-50.29296875
1770774901.505227,,,-25.390625,89.84375,-228.02734375,-41.015625
1770774901.5091023,,,-28.3203125,-48.33984375,-354.4921875,-45.8984375
1770774901.5129774,,,-22.94921875,-611.328125,-778.80859375,-57.12890625
1770774901.5168526,,,-19.04296875,-609.375,-764.6484375,-48.33984375
1770774901.5207279,,,-8.30078125,-22.94921875,-315.91796875,-34.66796875
1770774901.5246031,,,-17.578125,73.73046875,-213.8671875,-29.296875
1770774901.5284784,,,-43.45703125,-511.23046875,-651.85546875,-44.43359375
1770774901.5323536,,,-38.0859375,-526.3671875,-680.17578125,-46.38671875
1770774901.536229,,,-20.5078125,-208.984375,-391.6015625,-28.3203125
1770774901.5399806,,,-17.578125,-309.5703125,-432.6171875,-29.78515625
1770774901.5437326,,,-22.4609375,-535.64453125,-625.9765625,-57.6171875
1770774901.5474844,,,-17.08984375,-263.18359375,-425.29296875,-67.3828125
1770774901.5512362,,,-13.671875,21.97265625,-182.6171875,-40.0390625
1770774901.5549881,,,-9.27734375,-253.41796875,-373.046875,-23.4375
1770774901.55874,,,-26.3671875,-689.453125,-666.50390625,-58.59375
1770774901.5624917,,,-47.36328125,-504.8828125,-525.87890625,-86.42578125
1770774901.5662436,,,-54.19921875,-18.5546875,-150.87890625,-66.40625
1770774901.5699954,,,-62.01171875,-439.453125,-488.76953125,-36.62109375
1770774901.5737472,,,-63.4765625,-848.14453125,-858.88671875,-32.71484375
1770774901.5774992,,,-56.640625,-245.60546875,-354.00390625,-57.12890625
1770774901.581251,,,-46.38671875,-24.90234375,-152.34375,-38.57421875
1770774901.5850463,,,-45.8984375,-361.328125,-404.78515625,-21.484375
1770774901.5888414,,,-40.52734375,-339.35546875,-396.97265625,-29.296875
1770774901.5926366,,,-43.45703125,-296.875,-392.578125,-49.8046875
1770774901.596432,,,-39.0625,-520.01953125,-533.203125,-56.15234375
1770774901.6002274,,,-25.390625,-691.89453125,-703.61328125,-29.78515625
1770774901.6040225,,,-23.4375,-824.21875,-830.56640625,-23.4375
1770774901.6078176,,,-38.0859375,-443.359375,-496.58203125,-42.48046875
1770774901.611613,,,-38.57421875,-86.42578125,-219.23828125,-49.8046875
1770774901.6154084,,,-32.71484375,-629.8828125,-675.78125,-29.78515625
1770774901.6192036,,,-32.71484375,-595.21484375,-680.17578125,-21.97265625
1770774901.6229987,,,-29.78515625,104.00390625,-109.375,-39.0625
1770774901.626794,,,-33.203125,-153.80859375,-317.87109375,-51.26953125
1770774901.6304872,,,-29.78515625,-376.953125,-494.140625,-48.33984375
1770774901.6341803,,,-18.06640625,-62.5,-258.30078125,-41.9921875
1770774901.6378734,,,-20.99609375,92.28515625,-153.3203125,-37.59765625
1770774901.6415665,,,-34.1796875,-236.81640625,-424.8046875,-57.12890625
1770774901.6452596,,,-31.25,-509.765625,-635.25390625,-60.546875
1770774901.6489525,,,-20.99609375,-500.48828125,-601.5625,-38.57421875
1770774901.6526456,,,-24.4140625,-508.7890625,-589.84375,-51.26953125
1770774901.6563387,,,-41.50390625,-685.546875,-729.4921875,-72.75390625
1770774901.6600318,,,-44.921875,-992.67578125,-1000.0,-73.2421875
1770774901.663725,,,-17.08984375,-392.08984375,-564.94140625,-58.59375
1770774901.667418,,,-12.20703125,106.4453125,-170.41015625,-49.8046875
1770774901.671111,,,-33.203125,-230.95703125,-421.38671875,-63.4765625
1770774901.6761577,,,-25.390625,-205.078125,-395.01953125,-55.17578125
1770774901.6812043,,,-20.01953125,69.82421875,-197.75390625,-28.80859375
1770774901.6862512,,,-26.3671875,13.18359375,-229.00390625,-11.23046875
1770774901.6912978,,,-26.3671875,-259.27734375,-416.9921875,-25.87890625
1770774901.6963444,,,-27.83203125,-282.2265625,-442.87109375,-49.8046875
1770774901.7013912,,,-16.6015625,-389.16015625,-527.34375,-31.25
1770774901.7064378,,,-10.7421875,-533.69140625,-606.93359375,-9.765625
1770774901.7114844,,,-28.80859375,-804.19921875,-818.359375,-11.23046875
1770774901.716531,,,-48.33984375,-682.12890625,-777.83203125,-45.41015625
1770774901.7215776,,,-32.71484375,-159.66796875,-369.140625,-63.96484375
1770774901.7266245,,,-15.13671875,-400.390625,-515.625,-44.43359375
1770774901.731671,,,-20.5078125,-589.84375,-692.3828125,-33.69140625
1770774901.7341082,,,-25.87890625,-229.00390625,-451.171875,-55.17578125
1770774901.7365453,,,-18.06640625,47.36328125,-233.88671875,-59.5703125
1770774901.7389824,,,-1.46484375,-259.765625,-443.359375,-29.296875
1770774901.7414198,,,10.25390625,-382.32421875,-510.25390625,-18.5546875
1770774901.743857,,,-5.37109375,-81.0546875,-293.9453125,-40.52734375
1770774901.746294,,,-19.04296875,-288.57421875,-431.15234375,-47.8515625
1770774901.7487311,,,-7.32421875,-748.046875,-764.16015625,-27.34375
1770774901.7511683,,,0.48828125,-625.9765625,-692.3828125,-18.5546875
1770774901.7536054,,,-7.32421875,-93.75,-286.62109375,-17.578125
1770774901.7560427,,,-17.578125,58.10546875,-171.38671875,-29.296875
1770774901.7584798,,,-13.671875,-489.74609375,-586.9140625,-36.1328125
1770774901.760917,,,-5.859375,-812.5,-850.09765625,-21.484375
1770774901.767061,,,-7.32421875,-161.62109375,-340.8203125,-21.97265625
1770774901.773205,,,-13.18359375,-241.2109375,-360.83984375,-40.52734375
1770774901.7793493,,,-18.5546875,-789.55078125,-806.640625,-32.2265625
1770774901.7854934,,,-10.25390625,-521.484375,-627.44140625,-12.20703125
1770774901.7916374,,,2.44140625,-59.08203125,-237.3046875,-7.32421875
1770774901.7977815,,,-10.25390625,-382.8125,-437.01171875,-23.4375
1770774901.8039255,,,-24.90234375,-895.01953125,-863.76953125,-25.87890625
1770774901.8100696,,,-18.06640625,-636.71875,-712.40234375,-20.99609375
1770774901.8162138,,,-9.27734375,31.73828125,-139.6484375,-23.92578125
1770774901.822358,,,-18.06640625,-111.328125,-238.76953125,-28.80859375
1770774901.828502,,,-27.34375,-414.0625,-485.83984375,-29.78515625
1770774901.834646,,,-21.484375,-191.40625,-320.80078125,-11.23046875
1770774901.8371866,,,-19.04296875,50.78125,-144.53125,-9.765625
1770774901.839727,,,-21.484375,-201.66015625,-336.9140625,-39.0625
1770774901.8422675,,,-23.92578125,-427.24609375,-530.2734375,-65.4296875
1770774901.844808,,,-24.4140625,-155.2734375,-356.93359375,-49.8046875
1770774901.8473485,,,-19.53125,-160.15625,-349.12109375,-18.5546875
1770774901.849889,,,-20.5078125,-610.3515625,-682.12890625,-12.20703125
1770774901.8524296,,,-38.57421875,-989.74609375,-998.046875,-50.78125
1770774901.85497,,,-33.69140625,-500.0,-655.76171875,-62.5
1770774901.8575106,,,-12.6953125,62.98828125,-231.4453125,-29.296875
1770774901.8600512,,,-18.5546875,-446.2890625,-609.86328125,-25.390625
1770774901.8625915,,,-30.2734375,-607.91015625,-747.0703125,-52.734375
1770774901.865132,,,-23.92578125,-59.5703125,-339.84375,-53.7109375
1770774901.8689508,,,-10.25390625,4.39453125,-277.83203125,-35.15625
1770774901.8727698,,,-2.44140625,-530.2734375,-667.96875,-28.3203125
1770774901.8765886,,,-30.76171875,-647.4609375,-771.484375,-46.875
1770774901.8804073,,,-52.734375,-130.37109375,-383.30078125,-63.4765625
1770774901.8842263,,,-31.73828125,-104.98046875,-351.07421875,-38.0859375
1770774901.888045,,,-18.06640625,-598.6328125,-713.37890625,-17.08984375
1770774901.8918638,,,-23.92578125,-773.4375,-834.9609375,-24.90234375
1770774901.8956828,,,-29.296875,-276.85546875,-471.19140625,-41.015625
1770774901.8995016,,,-23.4375,-282.71484375,-451.171875,-39.55078125
1770774901.9033203,,,-26.3671875,-832.51953125,-855.95703125,-30.2734375
1770774901.9071393,,,-30.76171875,-794.43359375,-858.3984375,-39.55078125
1770774901.910958,,,-38.0859375,-233.88671875,-419.43359375,-49.31640625
1770774901.9147158,,,-37.109375,-234.86328125,-405.2734375,-38.57421875
1770774901.9184735,,,-38.57421875,-389.16015625,-526.3671875,-18.5546875
1770774901.9222312,,,-35.64453125,-109.375,-319.82421875,-14.6484375
1770774901.9259892,,,-35.64453125,-6.8359375,-255.37109375,-37.109375
1770774901.9297469,,,-40.0390625,-301.7578125,-469.23828125,-56.15234375
1770774901.9335046,,,-27.83203125,-747.55859375,-776.3671875,-43.45703125
1770774901.9372623,,,-23.4375,-655.2734375,-703.61328125,-22.94921875
1770774901.94102,,,-35.64453125,-180.6640625,-343.26171875,-37.109375
1770774901.9447777,,,-46.38671875,-477.05078125,-577.63671875,-47.36328125
1770774901.9485357,,,-48.33984375,-867.1875,-904.296875,-41.015625
1770774901.9522934,,,-39.0625,-303.22265625,-478.02734375,-51.26953125
1770774901.956051,,,-31.73828125,-217.7734375,-396.484375,-58.10546875
1770774901.9598603,,,-37.109375,-770.01953125,-820.3125,-62.5
1770774901.9636693,,,-20.5078125,-602.5390625,-699.21875,-47.36328125
1770774901.9674785,,,-4.39453125,-51.26953125,-245.1171875,-24.4140625
1770774901.9712877,,,-20.5078125,-105.95703125,-279.296875,-23.92578125
1770774901.975097,,,-37.109375,-406.25,-518.06640625,-45.8984375
1770774901.9789062,,,-25.87890625,-649.4140625,-685.05859375,-47.8515625
1770774901.9827151,,,-21.97265625,-530.76171875,-570.80078125,-25.87890625
1770774901.9865243,,,-19.53125,-177.24609375,-307.12890625,-29.78515625
1770774901.9903336,,,-27.83203125,-628.41796875,-695.3125,-42.96875
1770774901.9941425,,,-49.8046875,-673.828125,-762.20703125,-44.921875
1770774901.9979517,,,-47.36328125,-8.30078125,-236.81640625,-31.73828125
1770774902.001761,,,-36.62109375,-175.29296875,-342.28515625,-10.25390625
1770774902.005511,,,-34.66796875,-415.52734375,-512.6953125,-16.6015625
1770774902.009261,,,-38.57421875,-172.8515625,-343.26171875,-53.22265625
1770774902.013011,,,-41.9921875,27.34375,-192.3828125,-52.24609375
1770774902.016761,,,-30.76171875,-315.4296875,-433.59375,-21.97265625
1770774902.020511,,,-26.85546875,-641.6015625,-669.921875,-16.6015625
1770774902.024261,,,-41.015625,-608.3984375,-652.34375,-27.34375
1770774902.028011,,,-48.828125,-422.8515625,-514.16015625,-37.59765625
1770774902.031761,,,-46.38671875,-469.7265625,-548.33984375,-28.80859375
1770774902.035511,,,-46.38671875,-903.3203125,-921.38671875,-23.92578125
1770774902.039261,,,-53.22265625,-361.328125,-506.8359375,-52.734375
1770774902.043011,,,-45.41015625,10.7421875,-182.12890625,-55.6640625
1770774902.046761,,,-29.296875,-333.0078125,-427.24609375,-37.59765625
1770774902.050487,,,-16.11328125,-343.75,-435.05859375,-31.25
1770774902.0542133,,,-23.4375,-41.9921875,-205.078125,-40.52734375
1770774902.0579393,,,-35.15625,-47.36328125,-197.265625,-47.8515625
1770774902.0616653,,,-27.34375,-286.1328125,-377.44140625,-30.2734375
1770774902.0653915,,,-19.04296875,-320.80078125,-410.64453125,-11.71875
1770774902.0691175,,,-24.4140625,-476.07421875,-519.04296875,-28.80859375
1770774902.0728436,,,-31.73828125,-632.8125,-626.953125,-50.29296875
1770774902.0765698,,,-25.390625,-863.76953125,-847.16796875,-28.80859375
1770774902.0802958,,,-13.671875,-786.62109375,-837.40234375,-15.13671875
1770774902.0840218,,,-6.8359375,-44.921875,-252.44140625,-27.83203125
1770774902.087748,,,-16.6015625,-31.25,-221.19140625,-48.828125
1770774902.091474,,,-22.94921875,-292.96875,-417.48046875,-50.29296875
1770774902.095228,,,-20.99609375,-22.4609375,-209.9609375,-23.4375
1770774902.098982,,,-19.04296875,209.47265625,-28.3203125,-10.7421875
1770774902.102736,,,-25.87890625,-83.49609375,-230.95703125,-35.64453125
1770774902.1064901,,,-24.4140625,-292.48046875,-389.6484375,-56.15234375
1770774902.110244,,,-16.6015625,-65.4296875,-249.51171875,-45.41015625
1770774902.113998,,,-14.16015625,-222.16796875,-354.4921875,-39.55078125
1770774902.117752,,,-19.04296875,-652.83203125,-686.03515625,-51.7578125
1770774902.121506,,,-26.3671875,-795.41015625,-853.02734375,-59.5703125
1770774902.12526,,,-17.08984375,-119.140625,-344.23828125,-54.6875
1770774902.129014,,,0.48828125,288.0859375,-26.3671875,-26.85546875
1770774902.1327682,,,7.32421875,-247.55859375,-424.8046875,-33.203125
1770774902.136522,,,4.39453125,-427.734375,-557.6171875,-66.89453125
1770774902.1403103,,,-1.46484375,108.88671875,-175.78125,-60.546875
1770774902.1440985,,,14.6484375,194.82421875,-107.421875,-40.0390625
1770774902.1478868,,,23.92578125,-225.09765625,-407.2265625,-31.25
1770774902.151675,,,-6.8359375,-202.63671875,-376.953125,-42.96875
1770774902.1554632,,,-13.671875,89.84375,-154.78515625,-43.45703125
1770774902.1592517,,,0.48828125,-203.125,-332.51953125,-21.97265625
1770774902.16304,,,8.30078125,-756.8359375,-766.11328125,-38.0859375
1770774902.1668282,,,-7.32421875,-621.58203125,-730.46875,-76.171875
1770774902.1706164,,,-10.25390625,105.46875,-172.36328125,-69.82421875
1770774902.1744046,,,2.44140625,46.875,-198.73046875,-37.109375
1770774902.1781929,,,2.44140625,-233.88671875,-403.3203125,-19.04296875
1770774902.181981,,,-6.34765625,-26.85546875,-241.69921875,-27.83203125
1770774902.1868563,,,-16.11328125,157.2265625,-104.00390625,-48.828125
1770774902.1917315,,,-12.6953125,-148.92578125,-336.9140625,-31.73828125
1770774902.1966066,,,0.9765625,-583.49609375,-655.2734375,-6.8359375
1770774902.2014818,,,-6.8359375,-260.25390625,-425.29296875,-21.97265625
1770774902.206357,,,-21.484375,54.19921875,-196.2890625,-36.1328125
1770774902.2112322,,,-21.484375,-457.51953125,-556.640625,-17.578125
1770774902.2161071,,,-17.08984375,-1000.0,-1000.0,6.8359375
1770774902.2209823,,,-16.11328125,-448.2421875,-576.171875,-18.06640625
1770774902.2258575,,,-28.3203125,220.21484375,-28.80859375,-47.36328125
1770774902.2307327,,,-27.34375,-127.9296875,-288.57421875,-25.390625
1770774902.2356079,,,-14.6484375,-166.015625,-302.24609375,-6.8359375
1770774902.240483,,,-11.71875,151.3671875,-54.6875,-14.6484375
1770774902.2442973,,,-13.671875,132.8125,-57.12890625,-26.85546875
1770774902.2481117,,,-27.34375,-176.26953125,-267.578125,-29.296875
1770774902.251926,,,-28.80859375,-221.6796875,-286.1328125,-16.6015625
1770774902.2557404,,,-19.53125,83.984375,-53.7109375,1.46484375
1770774902.2595546,,,-25.87890625,-20.99609375,-128.90625,-18.06640625
1770774902.2633688,,,-26.85546875,-507.8125,-474.609375,-44.43359375
1770774902.2671833,,,-23.92578125,-635.25390625,-549.8046875,-25.390625
1770774902.2709975,,,-20.01953125,-324.21875,-312.5,-13.18359375
1770774902.274812,,,-20.5078125,41.50390625,-21.484375,-12.6953125
1770774902.2786262,,,-33.203125,-580.078125,-583.0078125,-21.484375
1770774902.2824407,,,-27.34375,-688.4765625,-730.95703125,-30.2734375
1770774902.286255,,,-16.11328125,189.453125,22.4609375,-10.25390625
1770774902.2900326,,,-15.625,58.10546875,-62.98828125,-16.6015625
1770774902.2938104,,,-28.80859375,-212.890625,-299.31640625,-42.96875
1770774902.297588,,,-35.64453125,65.91796875,-117.1875,-41.015625
1770774902.3013659,,,-13.671875,251.953125,21.97265625,-38.57421875
1770774902.3051436,,,-38.0859375,-65.91796875,-211.42578125,-32.2265625
1770774902.3089216,,,-79.58984375,-557.6171875,-574.70703125,-45.8984375
1770774902.3126993,,,-73.2421875,-362.3046875,-443.84765625,-56.15234375
1770774902.316477,,,-55.17578125,158.203125,-58.10546875,-46.875
1770774902.3202548,,,-39.55078125,-225.5859375,-342.28515625,-35.15625
1770774902.3240325,,,-37.109375,-887.6953125,-891.11328125,-46.38671875
1770774902.3278103,,,-31.73828125,-355.95703125,-471.6796875,-72.75390625
1770774902.331588,,,-33.69140625,136.23046875,-63.4765625,-54.19921875
1770774902.3353462,,,-26.3671875,-348.14453125,-439.94140625,-38.57421875
1770774902.3391042,,,-21.97265625,-471.6796875,-517.08984375,-48.828125
1770774902.3428621,,,-23.92578125,99.12109375,-97.16796875,-55.6640625
1770774902.3466203,,,-21.484375,150.390625,-69.3359375,-43.45703125
1770774902.3503785,,,-38.57421875,-78.61328125,-221.19140625,-47.36328125
1770774902.3541365,,,-49.8046875,-333.49609375,-390.625,-48.33984375
1770774902.3578944,,,-59.5703125,-222.16796875,-318.84765625,-54.19921875
1770774902.3616526,,,-60.546875,97.65625,-81.0546875,-54.6875
1770774902.3654108,,,-46.875,-488.28125,-564.453125,-39.0625
1770774902.3691688,,,-41.50390625,-559.5703125,-655.2734375,-59.5703125
1770774902.3729267,,,-57.12890625,239.2578125,-7.32421875,-90.8203125
1770774902.376685,,,-65.4296875,123.046875,-91.30859375,-92.28515625
1770774902.380471,,,-46.875,-270.01953125,-387.20703125,-69.82421875
1770774902.384257,,,-41.9921875,-205.56640625,-340.33203125,-52.734375
1770774902.3880432,,,-60.05859375,195.80078125,-48.33984375,-62.5
1770774902.3918293,,,-55.6640625,28.80859375,-179.6875,-58.59375
1770774902.3956153,,,-44.921875,-424.8046875,-514.6484375,-44.921875
1770774902.3994014,,,-42.96875,-251.46484375,-373.53515625,-38.57421875
1770774902.4031875,,,-49.8046875,-110.83984375,-252.9296875,-47.36328125
1770774902.4069736,,,-63.4765625,-451.171875,-509.27734375,-56.15234375
1770774902.4107597,,,-57.6171875,-708.984375,-755.859375,-45.41015625
1770774902.4145458,,,-37.109375,-4.8828125,-206.0546875,-42.96875
1770774902.4183319,,,-31.25,321.2890625,89.84375,-42.96875
1770774902.422118,,,-41.50390625,-76.171875,-205.078125,-50.29296875
1770774902.4257705,,,-39.0625,-121.58203125,-245.1171875,-43.45703125
1770774902.4294229,,,-33.69140625,171.875,-31.25,-28.3203125
1770774902.4330754,,,-35.64453125,97.65625,-86.42578125,-12.20703125
1770774902.436728,,,-44.921875,-209.47265625,-326.66015625,-36.1328125
1770774902.4403806,,,-52.24609375,-336.42578125,-423.828125,-61.03515625
1770774902.4440331,,,-45.8984375,-416.50390625,-474.609375,-41.9921875
1770774902.4476855,,,-48.33984375,-394.04296875,-414.55078125,-34.66796875
1770774902.451338,,,-56.15234375,-716.30859375,-708.49609375,-37.109375
1770774902.4549906,,,-60.05859375,-781.25,-829.58984375,-55.17578125
1770774902.458643,,,-46.875,24.4140625,-178.22265625,-53.22265625
1770774902.4622955,,,-36.1328125,88.8671875,-125.48828125,-16.6015625
1770774902.465948,,,-32.2265625,-231.93359375,-392.08984375,-27.34375
1770774902.4697003,,,-33.69140625,-76.66015625,-299.31640625,-62.01171875
1770774902.4734528,,,-30.2734375,84.47265625,-184.08203125,-45.41015625
1770774902.477205,,,-21.97265625,-231.93359375,-416.9921875,-23.4375
1770774902.4809575,,,-22.94921875,-416.9921875,-552.24609375,-23.4375
1770774902.4847097,,,-27.34375,-76.171875,-291.015625,-44.43359375
1770774902.488462,,,-19.04296875,-265.625,-411.62109375,-48.33984375
1770774902.4922144,,,-12.6953125,-727.05078125,-755.859375,-18.5546875
1770774902.4959667,,,-21.97265625,-842.28515625,-882.8125,-2.44140625
1770774902.4997191,,,-28.3203125,-522.94921875,-619.140625,-22.94921875
1770774902.5034714,,,-26.85546875,-43.9453125,-227.05078125,-30.76171875
1770774902.5072238,,,-16.6015625,-394.04296875,-507.8125,1.953125
1770774902.510976,,,-29.296875,-660.64453125,-720.21484375,-9.27734375
1770774902.5148373,,,-55.17578125,-77.63671875,-269.53125,-52.734375
1770774902.5186987,,,-68.84765625,-4.8828125,-217.28515625,-68.359375
1770774902.52256,,,-72.75390625,-277.83203125,-408.203125,-60.05859375
1770774902.526421,,,-76.171875,-234.375,-385.7421875,-52.24609375
1770774902.5302823,,,-78.61328125,-88.37890625,-285.64453125,-66.89453125
1770774902.5341434,,,-80.56640625,-437.01171875,-518.06640625,-89.84375
1770774902.5380049,,,-81.54296875,-881.34765625,-874.0234375,-87.890625
1770774902.541866,,,-73.73046875,-667.48046875,-750.48828125,-77.1484375
1770774902.5457273,,,-59.5703125,-35.15625,-238.76953125,-65.91796875
1770774902.5495887,,,-56.640625,-130.37109375,-291.015625,-72.75390625
1770774902.5534499,,,-56.640625,-370.60546875,-477.05078125,-75.1953125
1770774902.557311,,,-55.17578125,-373.53515625,-473.14453125,-41.015625
1770774902.562251,,,-58.10546875,-280.76171875,-402.34375,-23.4375
1770774902.5671911,,,-54.19921875,-263.671875,-377.44140625,-38.0859375
1770774902.572131,,,-52.24609375,-586.9140625,-647.4609375,-54.6875
1770774902.577071,,,-50.78125,-283.203125,-441.40625,-52.734375
1770774902.582011,,,-50.29296875,-20.5078125,-209.47265625,-25.87890625
1770774902.586951,,,-57.6171875,-552.24609375,-608.3984375,-19.04296875
1770774902.591891,,,-59.5703125,-866.69921875,-902.34375,-48.33984375
1770774902.596831,,,-37.59765625,-292.48046875,-479.00390625,-53.7109375
1770774902.6017709,,,-27.83203125,7.32421875,-227.5390625,-41.9921875
1770774902.606711,,,-41.9921875,-422.8515625,-563.96484375,-31.73828125
1770774902.611651,,,-56.640625,-490.234375,-615.72265625,-36.1328125
1770774902.616591,,,-57.12890625,-122.0703125,-341.30859375,-38.0859375
1770774902.6204305,,,-46.875,-119.62890625,-345.21484375,-17.08984375
1770774902.6242697,,,-41.015625,-399.90234375,-548.33984375,-12.20703125
1770774902.6281092,,,-50.78125,-425.78125,-589.84375,-35.64453125
1770774902.6319487,,,-52.24609375,-454.1015625,-610.83984375,-42.48046875
1770774902.635788,,,-48.33984375,-451.66015625,-583.0078125,-32.2265625
1770774902.6396275,,,-57.12890625,-707.03125,-768.5546875,-24.4140625
1770774902.643467,,,-68.84765625,-825.1953125,-877.9296875,-40.0390625
1770774902.6473062,,,-73.73046875,-192.3828125,-407.2265625,-60.05859375
1770774902.6511457,,,-64.453125,-162.109375,-361.81640625,-55.17578125
1770774902.6549852,,,-52.24609375,-446.2890625,-556.640625,-61.03515625
1770774902.6588244,,,-46.38671875,-291.50390625,-452.63671875,-76.66015625
1770774902.662664,,,-52.24609375,-82.03125,-319.3359375,-75.68359375
1770774902.6663022,,,-50.29296875,-336.9140625,-506.34765625,-54.19921875
1770774902.6699402,,,-53.22265625,-520.99609375,-633.30078125,-35.15625
1770774902.6735785,,,-59.5703125,-283.203125,-459.9609375,-39.55078125
1770774902.6772165,,,-55.6640625,-179.19921875,-394.04296875,-51.7578125
1770774902.6808548,,,-53.7109375,-479.00390625,-615.72265625,-52.24609375
1770774902.684493,,,-42.96875,-898.92578125,-917.96875,-49.8046875
1770774902.688131,,,-35.15625,-860.83984375,-889.16015625,-40.52734375
1770774902.6917694,,,-38.57421875,-550.29296875,-674.31640625,-47.36328125
1770774902.6954074,,,-43.9453125,-576.66015625,-694.82421875,-50.78125
1770774902.6990457,,,-43.9453125,-1000.0,-1000.0,-30.2734375
1770774902.7026837,,,-37.109375,-553.22265625,-716.30859375,-25.87890625
1770774902.706322,,,-41.015625,-93.75,-365.72265625,-37.109375
1770774902.7100632,,,-51.7578125,-415.0390625,-604.00390625,-44.43359375
1770774902.7138045,,,-51.26953125,-410.15625,-605.46875,-24.90234375
1770774902.7175457,,,-43.9453125,-88.8671875,-364.74609375,-11.71875
1770774902.721287,,,-33.203125,-130.859375,-399.90234375,-20.01953125
1770774902.7250283,,,-46.38671875,-455.078125,-645.01953125,-36.1328125
1770774902.7287693,,,-47.8515625,-707.03125,-823.73046875,-39.55078125
1770774902.7325106,,,-30.2734375,-624.51171875,-751.46484375,-29.296875
1770774902.7362518,,,-28.3203125,-317.3828125,-527.34375,-21.97265625
1770774902.739993,,,-35.15625,-699.21875,-798.33984375,-25.87890625
1770774902.7437344,,,-44.921875,-731.93359375,-834.47265625,-31.73828125
1770774902.7474756,,,-47.36328125,-339.35546875,-542.96875,-30.2734375
1770774902.751217,,,-41.50390625,-566.89453125,-672.8515625,-20.01953125
1770774902.7549195,,,-44.921875,-667.96875,-766.11328125,-31.25
1770774902.7586222,,,-51.7578125,-318.84765625,-537.109375,-50.29296875
1770774902.7623248,,,-43.45703125,5.37109375,-264.16015625,-30.76171875
1770774902.7660277,,,-32.2265625,-224.609375,-416.9921875,-10.25390625
1770774902.7697303,,,-35.15625,-443.359375,-586.42578125,-28.3203125
1770774902.773433,,,-44.921875,-560.05859375,-675.29296875,-46.38671875
1770774902.7771356,,,-39.0625,-409.1796875,-555.17578125,-40.0390625
1770774902.7808383,,,-36.1328125,-449.70703125,-580.078125,-35.64453125
1770774902.784541,,,-40.52734375,-842.28515625,-897.4609375,-46.875
1770774902.7882438,,,-49.31640625,-294.921875,-496.09375,-60.546875
1770774902.7919464,,,-45.8984375,8.30078125,-257.32421875,-43.9453125
1770774902.795649,,,-45.41015625,-362.3046875,-520.99609375,-23.4375
1770774902.799491,,,-47.8515625,-381.8359375,-514.16015625,-26.85546875
1770774902.803333,,,-45.41015625,-240.72265625,-404.296875,-46.38671875
1770774902.8071752,,,-40.52734375,-462.40234375,-536.62109375,-46.38671875
1770774902.811017,,,-42.48046875,-717.28515625,-748.046875,-29.78515625
1770774902.814859,,,-46.875,-536.1328125,-625.9765625,-19.53125
1770774902.818701,,,-35.15625,-419.43359375,-474.609375,-22.4609375
1770774902.8225431,,,-34.1796875,-579.1015625,-584.47265625,-40.52734375
1770774902.826385,,,-42.96875,-808.10546875,-813.4765625,-41.50390625
1770774902.830227,,,-45.8984375,-642.578125,-712.890625,-31.73828125
1770774902.834069,,,-50.29296875,-37.59765625,-205.56640625,-42.96875
1770774902.8379111,,,-63.96484375,-182.6171875,-309.08203125,-64.453125
1770774902.841753,,,-62.5,-445.80078125,-507.32421875,-70.3125
1770774902.8465796,,,-41.9921875,-255.859375,-385.7421875,-51.26953125
1770774902.851406,,,-37.109375,-26.85546875,-223.14453125,-41.9921875
1770774902.856233,,,-45.41015625,-309.08203125,-422.8515625,-58.59375
1770774902.8610594,,,-39.55078125,-498.046875,-569.3359375,-60.546875
1770774902.865886,,,-34.1796875,-212.40234375,-358.88671875,-41.015625
1770774902.8707125,,,-28.80859375,-371.09375,-462.40234375,-35.15625
1770774902.875539,,,-30.2734375,-700.1953125,-711.42578125,-39.0625
1770774902.8803656,,,-38.0859375,-1000.0,-1000.0,-35.64453125
1770774902.8851924,,,-27.34375,-553.22265625,-677.24609375,-31.25
1770774902.890019,,,-12.20703125,7.8125,-211.9140625,-19.04296875
1770774902.8948455,,,-23.92578125,-371.58203125,-503.41796875,-32.2265625
1770774902.899672,,,-37.109375,-483.88671875,-609.375,-56.15234375
1770774902.9022646,,,-38.0859375,-116.2109375,-325.1953125,-51.7578125
1770774902.9048572,,,-35.64453125,-34.66796875,-255.37109375,-30.2734375
1770774902.9074497,,,-27.83203125,-533.203125,-659.1796875,-22.94921875
1770774902.9100423,,,-33.69140625,-574.70703125,-723.6328125,-52.734375
1770774902.9126348,,,-31.73828125,-138.18359375,-381.8359375,-46.38671875
1770774902.9152277,,,-16.11328125,-416.9921875,-554.6875,-17.578125
1770774902.9178202,,,-16.11328125,-868.1640625,-885.25390625,-10.7421875
1770774902.9204128,,,-34.66796875,-656.73828125,-753.90625,-29.296875
1770774902.9230053,,,-36.62109375,-173.828125,-376.46484375,-33.203125
1770774902.925598,,,-23.4375,-413.0859375,-513.18359375,-12.6953125
1770774902.9281905,,,-24.4140625,-779.78515625,-811.5234375,-7.32421875
1770774902.930783,,,-39.0625,-501.953125,-639.16015625,-22.4609375
1770774902.9357083,,,-41.9921875,-41.50390625,-262.6953125,-33.69140625
1770774902.9406338,,,-31.25,-255.859375,-392.08984375,-28.3203125
1770774902.945559,,,-26.85546875,-487.3046875,-555.6640625,-27.83203125
1770774902.9504843,,,-30.2734375,-160.64453125,-326.66015625,-37.109375
1770774902.9554098,,,-36.62109375,-44.921875,-229.00390625,-35.15625
1770774902.960335,,,-41.015625,-545.41015625,-590.33203125,-13.18359375
1770774902.9652603,,,-33.203125,-923.828125,-919.921875,-15.625
1770774902.9701858,,,-29.78515625,-441.89453125,-543.45703125,-32.71484375
1770774902.975111,,,-39.55078125,-61.5234375,-220.703125,-45.8984375
1770774902.9800363,,,-33.69140625,-408.203125,-489.2578125,-40.52734375
1770774902.9849617,,,-19.53125,-495.1171875,-559.08203125,-7.32421875
1770774902.989887,,,-1.953125,-117.67578125,-279.78515625,11.23046875
1770774902.9937296,,,-8.7890625,-258.30078125,-381.8359375,-11.71875
1770774902.997572,,,-23.4375,-774.4140625,-800.29296875,-29.78515625
1770774903.0014145,,,-18.06640625,-629.39453125,-711.9140625,-24.90234375
1770774903.005257,,,-15.625,-47.36328125,-225.09765625,-17.578125
1770774903.0090995,,,-14.6484375,-118.65234375,-269.53125,-23.4375
1770774903.012942,,,-11.71875,-674.8046875,-677.24609375,-25.87890625
1770774903.0167844,,,-10.25390625,-662.59765625,-626.46484375,-10.7421875
1770774903.020627,,,1.953125,-148.4375,-247.55859375,-6.34765625
1770774903.0244694,,,5.37109375,-122.55859375,-238.28125,-22.94921875
1770774903.028312,,,-13.18359375,-666.015625,-694.3359375,-32.2265625
1770774903.0321543,,,-15.13671875,-557.12890625,-638.18359375,-32.2265625
1770774903.035997,,,-5.859375,-13.671875,-180.6640625,-17.08984375
1770774903.0398176,,,-11.23046875,-200.68359375,-310.05859375,-11.71875
1770774903.0436382,,,-23.92578125,-435.05859375,-496.58203125,-41.50390625
1770774903.0474586,,,-15.13671875,-198.73046875,-361.328125,-43.9453125
1770774903.0512793,,,-3.41796875,-32.2265625,-251.953125,-14.6484375
1770774903.0551,,,-11.71875,-412.109375,-526.3671875,-6.8359375
1770774903.0589204,,,-20.01953125,-867.1875,-887.20703125,-35.64453125
1770774903.062741,,,-20.01953125,-610.83984375,-697.265625,-56.15234375
1770774903.0665617,,,-8.7890625,-50.29296875,-280.2734375,-44.921875
1770774903.0703824,,,-9.27734375,-362.3046875,-520.99609375,-26.85546875
1770774903.074203,,,-35.15625,-856.93359375,-918.9453125,-46.875
1770774903.0780234,,,-47.8515625,-238.76953125,-488.28125,-67.3828125
1770774903.081844,,,-37.59765625,70.80078125,-248.046875,-36.62109375
1770774903.0855224,,,-32.2265625,-283.203125,-509.27734375,-16.6015625
1770774903.0892005,,,-33.69140625,-320.3125,-536.62109375,-25.87890625
1770774903.0928788,,,-39.55078125,-16.11328125,-307.12890625,-39.55078125
1770774903.0965571,,,-31.25,-2.9296875,-275.87890625,-23.4375
1770774903.1002352,,,-10.7421875,-292.48046875,-469.23828125,-6.34765625
1770774903.1039135,,,-13.18359375,-612.79296875,-684.08203125,-18.5546875
1770774903.1075919,,,-33.203125,-539.55078125,-611.328125,-43.9453125
1770774903.11127,,,-38.57421875,-286.62109375,-401.85546875,-41.9921875
1770774903.1149483,,,-34.66796875,-740.234375,-761.71875,-17.08984375
1770774903.1186266,,,-35.15625,-798.828125,-837.40234375,-20.99609375
1770774903.1223047,,,-31.73828125,-31.25,-221.6796875,-62.98828125
1770774903.125983,,,-30.2734375,-81.0546875,-249.0234375,-72.265625
1770774903.130397,,,-31.25,-361.328125,-459.47265625,-41.9921875
1770774903.134811,,,-24.4140625,-89.35546875,-251.953125,-25.87890625
1770774903.139225,,,-37.109375,75.68359375,-131.8359375,-30.76171875
1770774903.143639,,,-50.29296875,-234.375,-352.5390625,-42.96875
1770774903.148053,,,-33.69140625,-415.52734375,-479.98046875,-29.78515625
1770774903.152467,,,-12.20703125,-337.40234375,-414.55078125,-10.25390625
1770774903.156881,,,-21.97265625,-363.28125,-416.9921875,-20.99609375
1770774903.161295,,,-28.3203125,-610.83984375,-627.44140625,-46.38671875
1770774903.165709,,,-18.06640625,-802.734375,-843.75,-34.66796875
1770774903.170123,,,-14.16015625,-170.8984375,-370.60546875,-11.71875
1770774903.174537,,,-9.27734375,93.26171875,-136.71875,-5.37109375
1770774903.178951,,,-23.4375,-565.4296875,-631.8359375,-15.625
1770774903.1820986,,,-30.2734375,-601.07421875,-669.43359375,-26.3671875
1770774903.1852465,,,-21.484375,35.64453125,-193.359375,-18.5546875
1770774903.188394,,,-20.99609375,99.12109375,-141.6015625,-3.41796875
1770774903.1915417,,,-25.390625,-295.8984375,-439.94140625,-16.6015625
1770774903.1946893,,,-32.2265625,-286.1328125,-436.03515625,-22.4609375
1770774903.1978369,,,-28.3203125,-249.51171875,-408.69140625,0.9765625
1770774903.2009847,,,-12.6953125,-393.06640625,-504.39453125,2.9296875
1770774903.2041323,,,-11.71875,-698.73046875,-753.41796875,-9.27734375
1770774903.20728,,,-18.5546875,-621.58203125,-720.703125,-20.99609375
1770774903.2104278,,,-8.30078125,85.44921875,-173.828125,-15.13671875
1770774903.2135754,,,-0.48828125,28.3203125,-211.9140625,-6.34765625
1770774903.216723,,,-9.27734375,-230.95703125,-414.0625,-12.6953125
1770774903.2206514,,,-16.11328125,-78.61328125,-317.3828125,-31.25
1770774903.2245796,,,-7.32421875,128.41796875,-157.71484375,-35.15625
1770774903.228508,,,11.23046875,-182.6171875,-381.34765625,-2.9296875
1770774903.2324364,,,27.83203125,-504.8828125,-623.53515625,20.01953125
1770774903.2363646,,,18.06640625,-143.5546875,-382.32421875,3.90625
1770774903.240293,,,14.16015625,-245.1171875,-473.14453125,5.859375
1770774903.2442214,,,30.76171875,-671.38671875,-770.99609375,23.92578125
1770774903.2481496,,,33.69140625,-900.87890625,-946.2890625,22.94921875
1770774903.252078,,,21.484375,-356.93359375,-596.6796875,-2.9296875
1770774903.2560065,,,16.6015625,145.99609375,-229.00390625,-4.8828125
1770774903.2599347,,,12.20703125,-176.26953125,-451.171875,11.71875
1770774903.263863,,,8.7890625,-212.890625,-459.47265625,17.08984375
1770774903.2674217,,,1.953125,97.16796875,-218.26171875,14.6484375
1770774903.2709804,,,-15.13671875,65.91796875,-239.2578125,-1.953125
1770774903.2745388,,,-7.32421875,-271.484375,-478.515625,7.8125
1770774903.2780974,,,6.34765625,-228.515625,-430.17578125,15.13671875
1770774903.281656,,,6.34765625,-28.80859375,-289.55078125,4.8828125
1770774903.2852144,,,-3.90625,-424.8046875,-576.171875,-10.25390625
1770774903.288773,,,-7.8125,-901.3671875,-911.62109375,-2.44140625
1770774903.2923317,,,-5.859375,-757.32421875,-812.5,22.4609375
1770774903.2958903,,,0.48828125,-88.8671875,-288.0859375,20.5078125
1770774903.299449,,,-8.7890625,-46.38671875,-235.3515625,-2.44140625
1770774903.3030074,,,-14.6484375,-380.859375,-476.07421875,-4.8828125
1770774903.306566,,,-1.46484375,-241.2109375,-376.953125,14.16015625
1770774903.3114283,,,-0.9765625,58.10546875,-170.41015625,9.27734375
1770774903.3162904,,,-8.7890625,-139.16015625,-321.2890625,-10.7421875
1770774903.3211527,,,-7.32421875,-467.28515625,-583.984375,-16.11328125
1770774903.326015,,,-1.953125,-181.15234375,-393.5546875,-6.8359375
1770774903.3308773,,,-3.90625,-12.20703125,-266.11328125,1.953125
1770774903.3357396,,,-2.9296875,-535.64453125,-641.6015625,4.39453125
1770774903.3406017,,,-16.6015625,-891.6015625,-933.59375,-20.5078125
1770774903.345464,,,-19.53125,-333.49609375,-539.0625,-29.296875
1770774903.3503263,,,-11.23046875,89.35546875,-205.56640625,0.9765625
1770774903.3551884,,,-12.20703125,-307.12890625,-503.41796875,-2.9296875
1770774903.3600507,,,-22.4609375,-671.38671875,-769.53125,-23.92578125
1770774903.364913,,,-26.3671875,-266.11328125,-483.88671875,-31.73828125
1770774903.368674,,,-16.6015625,63.4765625,-239.2578125,-24.4140625
1770774903.372435,,,-21.484375,-477.5390625,-626.46484375,-11.23046875
1770774903.376196,,,-35.64453125,-674.8046875,-791.9921875,-35.15625
1770774903.379957,,,-34.66796875,-121.58203125,-385.25390625,-53.7109375
1770774903.383718,,,-26.85546875,-93.75,-346.19140625,-34.1796875
1770774903.3874788,,,-26.85546875,-567.87109375,-686.03515625,-13.671875
1770774903.39124,,,-32.2265625,-767.578125,-823.2421875,-29.296875
1770774903.395001,,,-40.52734375,-323.2421875,-507.32421875,-54.6875
1770774903.398762,,,-33.203125,-138.18359375,-373.046875,-36.1328125
1770774903.402523,,,-30.76171875,-628.41796875,-734.375,-12.6953125
1770774903.4062839,,,-43.45703125,-543.9453125,-700.68359375,-35.15625
1770774903.410045,,,-51.7578125,-39.0625,-325.1953125,-54.19921875
1770774903.4139776,,,-46.875,-168.45703125,-403.80859375,-36.62109375
1770774903.4179103,,,-32.71484375,-583.49609375,-687.98828125,-13.18359375
1770774903.4218433,,,-29.296875,-540.52734375,-660.64453125,-11.71875
1770774903.425776,,,-36.1328125,-101.07421875,-362.79296875,-37.59765625
1770774903.4297087,,,-40.0390625,-277.34375,-484.86328125,-46.38671875
1770774903.4336414,,,-39.55078125,-895.01953125,-935.546875,-35.64453125
1770774903.4375741,,,-26.85546875,-626.953125,-735.83984375,-34.1796875
1770774903.4415069,,,-22.94921875,-13.671875,-286.62109375,-42.48046875
1770774903.4454398,,,-28.3203125,-428.22265625,-591.796875,-45.8984375
1770774903.4493725,,,-29.78515625,-795.41015625,-865.72265625,-24.4140625
1770774903.4533052,,,-39.55078125,-226.5625,-462.40234375,-17.08984375
1770774903.457238,,,-50.29296875,-51.26953125,-326.66015625,-33.69140625
1770774903.4609072,,,-56.640625,-392.578125,-582.03125,-49.31640625
1770774903.4645762,,,-48.828125,-402.83203125,-592.7734375,-45.41015625
1770774903.4682455,,,-40.52734375,-115.234375,-377.44140625,-35.64453125
1770774903.4719145,,,-44.921875,-133.7890625,-380.859375,-36.62109375
1770774903.4755838,,,-51.26953125,-498.046875,-645.99609375,-50.29296875
1770774903.479253,,,-51.7578125,-729.98046875,-795.8984375,-40.52734375
1770774903.482922,,,-40.0390625,-666.50390625,-733.88671875,-20.5078125
1770774903.4865913,,,-34.66796875,-607.421875,-688.96484375,-25.390625
1770774903.4902604,,,-41.9921875,-827.1484375,-853.515625,-29.296875
1770774903.4939296,,,-40.0390625,-833.0078125,-889.16015625,-18.5546875
1770774903.4975986,,,-37.59765625,-163.57421875,-387.6953125,-19.04296875
1770774903.501268,,,-30.2734375,-112.3046875,-321.2890625,-11.71875
1770774903.506138,,,-38.0859375,-380.859375,-525.87890625,-19.53125
1770774903.511008,,,-50.29296875,-190.91796875,-393.06640625,-46.38671875
1770774903.5158782,,,-35.15625,-59.08203125,-305.6640625,-34.1796875
1770774903.5207484,,,-29.296875,-310.05859375,-487.3046875,-9.765625
1770774903.5256183,,,-35.15625,-491.69921875,-618.1640625,-18.06640625
1770774903.5304885,,,-45.41015625,-624.0234375,-735.3515625,-42.96875
1770774903.5353587,,,-46.38671875,-490.72265625,-638.18359375,-30.2734375
1770774903.5402286,,,-44.921875,-436.03515625,-586.42578125,-9.765625
1770774903.5450988,,,-41.9921875,-958.0078125,-978.515625,-13.18359375
1770774903.549969,,,-36.1328125,-627.44140625,-750.9765625,-32.2265625
1770774903.554839,,,-31.25,-15.625,-275.390625,-28.80859375
1770774903.559709,,,-22.94921875,-469.23828125,-599.12109375,-17.08984375
1770774903.5623462,,,-15.13671875,-672.8515625,-770.99609375,-23.4375
1770774903.5649834,,,-24.4140625,-75.1953125,-322.75390625,-40.52734375
1770774903.5676205,,,-31.73828125,-31.25,-291.015625,-43.9453125
1770774903.5702577,,,-21.484375,-311.5234375,-498.046875,-29.78515625
1770774903.5728948,,,-7.32421875,-312.5,-482.91015625,-17.578125
1770774903.5755322,,,-9.27734375,-433.10546875,-566.40625,-17.578125
1770774903.5781693,,,-41.50390625,-591.796875,-680.17578125,-39.55078125
1770774903.5808065,,,-48.828125,-770.99609375,-825.1953125,-35.15625
1770774903.5834436,,,-32.71484375,-591.796875,-728.02734375,-24.4140625
1770774903.5860808,,,-24.4140625,40.52734375,-272.94921875,-42.48046875
1770774903.588718,,,-32.71484375,-93.26171875,-399.90234375,-42.96875
1770774903.591355,,,-41.50390625,-438.96484375,-671.38671875,-40.52734375
1770774903.595248,,,-38.57421875,-500.9765625,-694.3359375,-36.62109375
1770774903.5991411,,,-38.57421875,-231.4453125,-469.23828125,-22.4609375
1770774903.603034,,,-34.66796875,-260.7421875,-477.05078125,-33.203125
1770774903.6069272,,,-35.15625,-594.7265625,-717.28515625,-37.109375
1770774903.61082,,,-29.296875,-272.94921875,-473.14453125,-19.04296875
1770774903.614713,,,-20.01953125,-298.33984375,-467.7734375,-11.23046875
1770774903.618606,,,-20.99609375,-689.453125,-746.58203125,-27.83203125
1770774903.622499,,,-25.87890625,-831.54296875,-887.20703125,-43.9453125
1770774903.6263921,,,-19.04296875,-285.15625,-480.95703125,-31.73828125
1770774903.630285,,,-4.39453125,68.359375,-189.453125,4.39453125
1770774903.6341782,,,-11.71875,-312.5,-465.8203125,-1.46484375
1770774903.638071,,,-30.2734375,-412.109375,-543.45703125,-39.0625
1770774903.6428454,,,-31.73828125,-117.1875,-317.3828125,-26.85546875
1770774903.6476195,,,-21.484375,-137.6953125,-323.73046875,-1.46484375
1770774903.6523938,,,-28.3203125,-451.171875,-554.6875,-11.71875
1770774903.6571681,,,-39.0625,-517.578125,-598.14453125,-29.296875
1770774903.6619422,,,-33.203125,-549.31640625,-617.1875,-32.71484375
1770774903.6667166,,,-18.06640625,-701.66015625,-709.9609375,-30.2734375
1770774903.671491,,,-17.578125,-869.140625,-857.91015625,-18.06640625
1770774903.676265,,,-35.15625,-847.16796875,-893.06640625,-36.62109375
1770774903.6810393,,,-43.9453125,-273.92578125,-445.80078125,-51.7578125
1770774903.6858137,,,-46.38671875,-182.12890625,-345.703125,-41.015625
1770774903.6905878,,,-50.29296875,-442.3828125,-540.0390625,-38.0859375
1770774903.695362,,,-64.453125,-273.92578125,-423.828125,-58.10546875
1770774903.6991158,,,-67.3828125,-100.5859375,-318.84765625,-86.42578125
1770774903.7028697,,,-60.05859375,-368.1640625,-521.484375,-87.890625
1770774903.7066233,,,-57.6171875,-569.82421875,-668.9453125,-79.1015625
1770774903.710377,,,-72.75390625,-260.7421875,-460.44921875,-97.16796875
1770774903.7141309,,,-105.46875,-113.28125,-359.86328125,-122.55859375
1770774903.7178845,,,-118.1640625,-604.00390625,-707.51953125,-109.86328125
1770774903.7216382,,,-128.41796875,-806.640625,-874.51171875,-110.83984375
1770774903.725392,,,-135.7421875,-508.30078125,-654.78515625,-119.140625
1770774903.7291458,,,-152.34375,-379.8828125,-551.26953125,-144.53125
1770774903.7328994,,,-166.015625,-577.1484375,-700.68359375,-166.50390625
1770774903.7366533,,,-170.41015625,-800.78125,-872.55859375,-161.1328125
1770774903.740407,,,-165.0390625,-301.26953125,-534.66796875,-166.015625
1770774903.745475,,,-167.48046875,-122.55859375,-402.83203125,-179.6875
1770774903.750543,,,-175.29296875,-461.42578125,-652.83203125,-183.59375
1770774903.755611,,,-169.43359375,-455.56640625,-644.53125,-169.43359375
1770774903.760679,,,-163.57421875,-118.65234375,-389.16015625,-162.109375
1770774903.765747,,,-172.36328125,-205.078125,-456.0546875,-163.57421875
1770774903.770815,,,-182.6171875,-653.80859375,-791.015625,-173.33984375
1770774903.775883,,,-171.875,-783.69140625,-888.18359375,-166.50390625
1770774903.780951,,,-163.0859375,-314.94140625,-536.1328125,-156.73828125
1770774903.786019,,,-164.55078125,-173.33984375,-433.10546875,-162.109375
1770774903.7910872,,,-173.828125,-681.15234375,-812.01171875,-169.43359375
1770774903.796155,,,-161.1328125,-626.953125,-786.1328125,-160.15625
1770774903.801223,,,-140.625,-364.74609375,-600.5859375,-140.625
1770774903.8048239,,,-137.20703125,-434.5703125,-626.953125,-124.51171875
1770774903.8084245,,,-134.27734375,-610.83984375,-748.046875,-133.30078125
1770774903.8120253,,,-118.1640625,-363.28125,-564.94140625,-122.55859375
1770774903.8156261,,,-92.7734375,1.953125,-256.8359375,-80.078125
1770774903.8192267,,,-78.125,-284.1796875,-448.73046875,-53.7109375
1770774903.8228276,,,-76.171875,-752.44140625,-776.3671875,-62.01171875
1770774903.8264284,,,-70.3125,-729.00390625,-747.0703125,-69.3359375
1770774903.830029,,,-56.640625,-214.84375,-374.51171875,-40.52734375
1770774903.8336298,,,-45.41015625,-355.95703125,-477.5390625,-12.6953125
1770774903.8372307,,,-40.52734375,-611.328125,-666.9921875,-20.5078125
1770774903.8408313,,,-40.0390625,-46.38671875,-243.1640625,-24.4140625
1770774903.844432,,,-29.78515625,114.2578125,-107.421875,-8.7890625
1770774903.84726,,,-1.46484375,-498.046875,-582.51953125,22.94921875
1770774903.8500881,,,1.953125,-787.59765625,-842.7734375,19.04296875
1770774903.852916,,,-20.01953125,-396.97265625,-543.45703125,-13.671875
1770774903.8557441,,,-2.44140625,-260.7421875,-415.52734375,-6.34765625
1770774903.858572,,,20.5078125,-501.953125,-616.69921875,8.30078125
1770774903.8614,,,20.99609375,-772.4609375,-821.77734375,13.671875
1770774903.864228,,,11.23046875,-380.37109375,-493.1640625,-1.46484375
1770774903.867056,,,16.6015625,-23.92578125,-227.5390625,0.9765625
1770774903.869884,,,27.34375,-512.20703125,-622.0703125,22.94921875
1770774903.872712,,,31.25,-559.08203125,-667.96875,25.87890625
1770774903.87554,,,27.34375,158.69140625,-88.37890625,10.25390625
1770774903.878368,,,24.90234375,8.7890625,-192.87109375,0.48828125
1770774903.8832436,,,34.1796875,-361.81640625,-475.5859375,19.04296875
1770774903.8881192,,,44.921875,-156.73828125,-315.91796875,38.0859375
1770774903.8929946,,,44.43359375,131.34765625,-100.09765625,32.71484375
1770774903.8978703,,,29.78515625,-126.953125,-309.08203125,27.34375
1770774903.902746,,,39.55078125,-327.1484375,-455.56640625,35.64453125
1770774903.9076214,,,49.31640625,-307.12890625,-437.98828125,42.96875
1770774903.912497,,,45.41015625,-379.8828125,-495.60546875,51.26953125
1770774903.9173727,,,45.41015625,-557.12890625,-623.53515625,24.4140625
1770774903.9222484,,,46.875,-985.83984375,-990.234375,4.39453125
1770774903.927124,,,51.7578125,-453.61328125,-623.53515625,15.625
1770774903.9319994,,,48.33984375,228.02734375,-92.28515625,19.53125
1770774903.936875,,,34.66796875,-83.49609375,-330.56640625,3.41796875
1770774903.9393706,,,47.36328125,-187.98828125,-431.15234375,8.30078125
1770774903.941866,,,60.546875,103.515625,-222.16796875,27.34375
1770774903.9443612,,,64.94140625,109.375,-211.42578125,31.25
1770774903.9468567,,,50.78125,-188.4765625,-443.359375,13.671875
1770774903.9493523,,,28.3203125,-235.3515625,-479.4921875,7.8125
1770774903.9518476,,,34.66796875,-286.1328125,-489.2578125,18.5546875
1770774903.9543428,,,43.9453125,-407.2265625,-550.29296875,19.04296875
1770774903.9568384,,,41.9921875,-470.703125,-601.07421875,9.765625
1770774903.959334,,,34.66796875,-238.28125,-451.66015625,-5.859375
1770774903.9618292,,,33.203125,-65.91796875,-317.87109375,3.90625
1770774903.9643245,,,37.109375,-282.71484375,-459.9609375,20.5078125
1770774903.96682,,,31.25,-750.48828125,-797.8515625,23.4375
1770774903.970577,,,23.4375,-724.12109375,-815.4296875,-3.90625
1770774903.9743338,,,34.66796875,68.359375,-227.5390625,-5.37109375
1770774903.9780908,,,35.64453125,-19.04296875,-252.9296875,25.87890625
1770774903.9818478,,,25.390625,-474.12109375,-606.93359375,30.76171875
1770774903.9856045,,,9.765625,-161.1328125,-396.484375,15.13671875
1770774903.9893615,,,13.18359375,-139.6484375,-365.72265625,2.44140625
1770774903.9931185,,,24.4140625,-581.0546875,-690.4296875,16.6015625
1770774903.9968753,,,15.625,-745.1171875,-835.44921875,37.59765625
1770774904.0006323,,,7.32421875,-187.01171875,-449.21875,15.13671875
1770774904.0043893,,,14.6484375,254.39453125,-126.953125,-7.32421875
1770774904.008146,,,24.90234375,-125.48828125,-406.73828125,9.27734375
1770774904.011903,,,19.04296875,-277.34375,-519.04296875,19.04296875
1770774904.0167696,,,7.8125,126.953125,-241.2109375,5.859375
1770774904.0216365,,,0.9765625,-10.25390625,-330.078125,-14.16015625
1770774904.026503,,,-1.46484375,-629.39453125,-769.53125,-10.25390625
1770774904.0313697,,,-3.41796875,-472.16796875,-666.015625,10.7421875
1770774904.0362363,,,2.9296875,74.70703125,-257.8125,19.04296875
1770774904.041103,,,0.0,-230.95703125,-465.8203125,1.953125
1770774904.0459697,,,2.44140625,-802.734375,-870.60546875,-7.8125
1770774904.0508363,,,11.71875,-621.58203125,-750.9765625,5.859375
1770774904.055703,,,6.34765625,119.140625,-228.515625,13.18359375
1770774904.0605698,,,-5.37109375,79.1015625,-247.0703125,1.953125
1770774904.0654364,,,-5.37109375,-238.76953125,-467.28515625,-2.9296875
1770774904.070303,,,0.9765625,-119.62890625,-373.53515625,8.7890625
1770774904.0741048,,,1.953125,143.06640625,-163.0859375,17.08984375
1770774904.0779068,,,-1.46484375,-60.05859375,-302.734375,10.7421875
1770774904.0817087,,,-6.8359375,-318.359375,-508.30078125,-9.27734375
1770774904.0855107,,,0.9765625,-43.45703125,-306.640625,4.39453125
1770774904.0893126,,,4.39453125,56.15234375,-205.56640625,20.5078125
1770774904.0931144,,,2.9296875,-429.6875,-545.41015625,17.578125
1770774904.0969164,,,-2.44140625,-954.58984375,-970.21484375,4.8828125
1770774904.1007183,,,7.8125,-583.984375,-723.6328125,2.9296875
1770774904.1045203,,,20.01953125,104.98046875,-200.68359375,15.625
1770774904.1083221,,,12.6953125,-297.8515625,-505.37109375,14.16015625
1770774904.1121242,,,0.9765625,-628.41796875,-761.23046875,-7.8125
1770774904.115926,,,4.39453125,-5.37109375,-304.6875,-11.23046875
1770774904.1221683,,,8.7890625,148.4375,-177.24609375,4.8828125
